# log Energy    log Jnu
# (eV)          (ergs/s/cm2/Hz/Sr)
  -6.864        -20.261
  -6.820        -20.174
  -6.777        -20.087
  -6.734        -20.000
  -6.690        -19.914
  -6.647        -19.827
  -6.603        -19.740
  -6.560        -19.653
  -6.516        -19.566
  -6.473        -19.479
  -6.430        -19.392
  -6.386        -19.306
  -6.343        -19.219
  -6.299        -19.132
  -6.256        -19.045
  -6.212        -18.958
  -6.169        -18.871
  -6.126        -18.785
  -6.082        -18.698
  -6.039        -18.611
  -5.995        -18.524
  -5.952        -18.437
  -5.908        -18.350
  -5.865        -18.264
  -5.822        -18.177
  -5.778        -18.090
  -5.735        -18.003
  -5.691        -17.916
  -5.648        -17.829
  -5.605        -17.742
  -5.561        -17.656
  -5.518        -17.569
  -5.474        -17.482
  -5.431        -17.395
  -5.387        -17.309
  -5.344        -17.222
  -5.300        -17.135
  -5.257        -17.048
  -5.214        -16.962
  -5.170        -16.875
  -5.127        -16.788
  -5.083        -16.701
  -5.040        -16.615
  -4.996        -16.528
  -4.953        -16.441
  -4.910        -16.355
  -4.866        -16.268
  -4.823        -16.181
  -4.779        -16.095
  -4.736        -16.008
  -4.692        -15.922
  -4.649        -15.835
  -4.606        -15.749
  -4.562        -15.663
  -4.519        -15.576
  -4.475        -15.490
  -4.432        -15.404
  -4.388        -15.318
  -4.345        -15.232
  -4.302        -15.146
  -4.258        -15.060
  -4.215        -14.974
  -4.171        -14.888
  -4.128        -14.803
  -4.084        -14.718
  -4.041        -14.632
  -3.998        -14.547
  -3.954        -14.463
  -3.911        -14.378
  -3.867        -14.293
  -3.824        -14.209
  -3.781        -14.125
  -3.737        -14.042
  -3.693        -13.959
  -3.650        -13.876
  -3.607        -13.794
  -3.584        -13.755
  -3.582        -13.745
  -3.580        -13.743
  -3.577        -13.740
  -3.575        -13.736
  -3.573        -13.732
  -3.571        -13.728
  -3.569        -13.724
  -3.567        -13.720
  -3.564        -13.715
  -3.562        -13.711
  -3.560        -13.707
  -3.558        -13.703
  -3.556        -13.699
  -3.554        -13.695
  -3.551        -13.691
  -3.549        -13.687
  -3.547        -13.683
  -3.545        -13.679
  -3.543        -13.675
  -3.540        -13.671
  -3.538        -13.667
  -3.536        -13.662
  -3.534        -13.658
  -3.532        -13.654
  -3.530        -13.650
  -3.528        -13.646
  -3.525        -13.642
  -3.523        -13.638
  -3.521        -13.634
  -3.519        -13.630
  -3.517        -13.626
  -3.514        -13.622
  -3.512        -13.618
  -3.510        -13.614
  -3.508        -13.610
  -3.506        -13.606
  -3.504        -13.602
  -3.502        -13.598
  -3.499        -13.594
  -3.497        -13.590
  -3.495        -13.586
  -3.493        -13.582
  -3.491        -13.578
  -3.488        -13.574
  -3.486        -13.570
  -3.484        -13.566
  -3.482        -13.562
  -3.480        -13.558
  -3.477        -13.554
  -3.475        -13.549
  -3.473        -13.545
  -3.471        -13.541
  -3.469        -13.537
  -3.467        -13.533
  -3.464        -13.530
  -3.462        -13.525
  -3.460        -13.521
  -3.458        -13.517
  -3.456        -13.513
  -3.454        -13.509
  -3.451        -13.505
  -3.449        -13.502
  -3.447        -13.497
  -3.445        -13.493
  -3.443        -13.489
  -3.441        -13.486
  -3.438        -13.481
  -3.436        -13.477
  -3.434        -13.473
  -3.432        -13.470
  -3.430        -13.465
  -3.428        -13.462
  -3.425        -13.458
  -3.423        -13.454
  -3.421        -13.450
  -3.419        -13.446
  -3.417        -13.442
  -3.415        -13.438
  -3.412        -13.434
  -3.410        -13.430
  -3.408        -13.426
  -3.406        -13.422
  -3.404        -13.418
  -3.402        -13.414
  -3.399        -13.410
  -3.397        -13.406
  -3.395        -13.402
  -3.393        -13.398
  -3.391        -13.394
  -3.389        -13.390
  -3.386        -13.386
  -3.384        -13.382
  -3.382        -13.379
  -3.380        -13.375
  -3.378        -13.371
  -3.376        -13.367
  -3.373        -13.363
  -3.371        -13.359
  -3.369        -13.355
  -3.367        -13.351
  -3.365        -13.347
  -3.362        -13.343
  -3.360        -13.339
  -3.358        -13.335
  -3.356        -13.331
  -3.354        -13.328
  -3.352        -13.324
  -3.349        -13.320
  -3.347        -13.316
  -3.345        -13.312
  -3.343        -13.308
  -3.341        -13.304
  -3.339        -13.300
  -3.336        -13.296
  -3.334        -13.293
  -3.332        -13.289
  -3.330        -13.285
  -3.328        -13.281
  -3.326        -13.277
  -3.323        -13.273
  -3.321        -13.269
  -3.319        -13.265
  -3.317        -13.262
  -3.315        -13.258
  -3.313        -13.254
  -3.310        -13.250
  -3.308        -13.246
  -3.306        -13.242
  -3.304        -13.238
  -3.302        -13.235
  -3.300        -13.231
  -3.297        -13.227
  -3.295        -13.223
  -3.293        -13.219
  -3.291        -13.215
  -3.289        -13.212
  -3.287        -13.208
  -3.284        -13.204
  -3.282        -13.200
  -3.280        -13.196
  -3.278        -13.192
  -3.276        -13.189
  -3.273        -13.185
  -3.271        -13.181
  -3.269        -13.177
  -3.267        -13.174
  -3.265        -13.169
  -3.263        -13.166
  -3.260        -13.162
  -3.258        -13.158
  -3.256        -13.154
  -3.254        -13.151
  -3.252        -13.147
  -3.250        -13.143
  -3.247        -13.139
  -3.245        -13.136
  -3.243        -13.132
  -3.241        -13.128
  -3.239        -13.124
  -3.237        -13.121
  -3.234        -13.117
  -3.232        -13.113
  -3.230        -13.109
  -3.228        -13.106
  -3.226        -13.102
  -3.224        -13.098
  -3.221        -13.094
  -3.219        -13.091
  -3.217        -13.087
  -3.215        -13.083
  -3.213        -13.079
  -3.211        -13.076
  -3.208        -13.072
  -3.206        -13.068
  -3.204        -13.064
  -3.202        -13.061
  -3.200        -13.057
  -3.197        -13.053
  -3.195        -13.050
  -3.193        -13.046
  -3.191        -13.042
  -3.189        -13.039
  -3.187        -13.035
  -3.184        -13.031
  -3.182        -13.028
  -3.180        -13.024
  -3.178        -13.020
  -3.176        -13.017
  -3.174        -13.013
  -3.171        -13.009
  -3.169        -13.005
  -3.167        -13.002
  -3.165        -12.998
  -3.163        -12.995
  -3.161        -12.991
  -3.158        -12.987
  -3.156        -12.984
  -3.154        -12.980
  -3.152        -12.976
  -3.150        -12.973
  -3.148        -12.969
  -3.145        -12.966
  -3.143        -12.962
  -3.141        -12.959
  -3.139        -12.955
  -3.137        -12.951
  -3.135        -12.948
  -3.132        -12.944
  -3.130        -12.941
  -3.128        -12.937
  -3.126        -12.933
  -3.124        -12.930
  -3.122        -12.926
  -3.119        -12.923
  -3.117        -12.919
  -3.115        -12.916
  -3.113        -12.912
  -3.111        -12.908
  -3.108        -12.905
  -3.106        -12.901
  -3.104        -12.898
  -3.102        -12.894
  -3.100        -12.891
  -3.098        -12.887
  -3.095        -12.884
  -3.093        -12.880
  -3.091        -12.877
  -3.089        -12.873
  -3.087        -12.870
  -3.085        -12.866
  -3.082        -12.863
  -3.080        -12.859
  -3.078        -12.856
  -3.076        -12.852
  -3.074        -12.849
  -3.072        -12.845
  -3.069        -12.842
  -3.067        -12.839
  -3.065        -12.835
  -3.063        -12.832
  -3.061        -12.828
  -3.059        -12.825
  -3.056        -12.821
  -3.054        -12.818
  -3.052        -12.814
  -3.050        -12.811
  -3.048        -12.808
  -3.046        -12.804
  -3.043        -12.801
  -3.041        -12.798
  -3.039        -12.794
  -3.037        -12.791
  -3.035        -12.787
  -3.032        -12.784
  -3.030        -12.781
  -3.028        -12.777
  -3.026        -12.774
  -3.024        -12.771
  -3.022        -12.767
  -3.019        -12.764
  -3.017        -12.761
  -3.015        -12.757
  -3.013        -12.754
  -3.011        -12.751
  -3.009        -12.747
  -3.006        -12.744
  -3.004        -12.741
  -3.002        -12.737
  -3.000        -12.734
  -2.998        -12.731
  -2.996        -12.728
  -2.993        -12.724
  -2.991        -12.721
  -2.989        -12.718
  -2.987        -12.715
  -2.985        -12.711
  -2.983        -12.708
  -2.980        -12.705
  -2.978        -12.702
  -2.976        -12.698
  -2.974        -12.695
  -2.972        -12.692
  -2.970        -12.689
  -2.967        -12.686
  -2.965        -12.682
  -2.963        -12.679
  -2.961        -12.676
  -2.959        -12.673
  -2.956        -12.670
  -2.954        -12.667
  -2.952        -12.664
  -2.950        -12.660
  -2.948        -12.657
  -2.946        -12.654
  -2.944        -12.651
  -2.941        -12.648
  -2.939        -12.645
  -2.937        -12.642
  -2.935        -12.639
  -2.933        -12.635
  -2.930        -12.632
  -2.928        -12.629
  -2.926        -12.626
  -2.924        -12.623
  -2.922        -12.620
  -2.920        -12.617
  -2.917        -12.614
  -2.915        -12.611
  -2.913        -12.608
  -2.911        -12.605
  -2.909        -12.602
  -2.907        -12.599
  -2.904        -12.596
  -2.902        -12.593
  -2.900        -12.590
  -2.898        -12.587
  -2.896        -12.584
  -2.894        -12.581
  -2.891        -12.578
  -2.889        -12.576
  -2.887        -12.572
  -2.885        -12.570
  -2.883        -12.567
  -2.880        -12.564
  -2.878        -12.561
  -2.876        -12.558
  -2.874        -12.555
  -2.872        -12.552
  -2.870        -12.549
  -2.867        -12.547
  -2.865        -12.544
  -2.863        -12.541
  -2.861        -12.538
  -2.859        -12.535
  -2.857        -12.533
  -2.855        -12.530
  -2.852        -12.527
  -2.850        -12.524
  -2.848        -12.522
  -2.846        -12.519
  -2.843        -12.516
  -2.842        -12.513
  -2.839        -12.511
  -2.837        -12.507
  -2.835        -12.505
  -2.833        -12.502
  -2.831        -12.499
  -2.828        -12.497
  -2.826        -12.494
  -2.824        -12.491
  -2.822        -12.489
  -2.820        -12.486
  -2.817        -12.484
  -2.815        -12.481
  -2.813        -12.479
  -2.811        -12.476
  -2.809        -12.473
  -2.807        -12.471
  -2.805        -12.468
  -2.802        -12.466
  -2.800        -12.463
  -2.798        -12.460
  -2.796        -12.458
  -2.794        -12.455
  -2.792        -12.453
  -2.789        -12.450
  -2.787        -12.448
  -2.785        -12.446
  -2.783        -12.443
  -2.781        -12.441
  -2.779        -12.438
  -2.776        -12.436
  -2.774        -12.433
  -2.772        -12.431
  -2.770        -12.428
  -2.767        -12.426
  -2.765        -12.424
  -2.763        -12.421
  -2.761        -12.419
  -2.759        -12.417
  -2.757        -12.414
  -2.754        -12.412
  -2.753        -12.410
  -2.750        -12.407
  -2.748        -12.405
  -2.746        -12.403
  -2.744        -12.401
  -2.741        -12.398
  -2.739        -12.396
  -2.737        -12.394
  -2.735        -12.392
  -2.733        -12.390
  -2.731        -12.387
  -2.729        -12.385
  -2.726        -12.383
  -2.724        -12.381
  -2.722        -12.379
  -2.720        -12.377
  -2.718        -12.375
  -2.716        -12.373
  -2.713        -12.370
  -2.711        -12.368
  -2.709        -12.366
  -2.707        -12.364
  -2.705        -12.362
  -2.703        -12.360
  -2.700        -12.358
  -2.698        -12.356
  -2.696        -12.354
  -2.694        -12.352
  -2.692        -12.351
  -2.689        -12.349
  -2.687        -12.347
  -2.685        -12.345
  -2.683        -12.343
  -2.681        -12.341
  -2.679        -12.339
  -2.677        -12.337
  -2.674        -12.336
  -2.672        -12.334
  -2.670        -12.332
  -2.668        -12.330
  -2.666        -12.328
  -2.663        -12.327
  -2.661        -12.325
  -2.659        -12.323
  -2.657        -12.322
  -2.655        -12.320
  -2.653        -12.318
  -2.650        -12.317
  -2.648        -12.315
  -2.646        -12.313
  -2.644        -12.312
  -2.642        -12.310
  -2.640        -12.309
  -2.637        -12.307
  -2.635        -12.306
  -2.633        -12.304
  -2.631        -12.303
  -2.629        -12.301
  -2.626        -12.300
  -2.624        -12.298
  -2.622        -12.297
  -2.620        -12.295
  -2.618        -12.294
  -2.616        -12.293
  -2.614        -12.291
  -2.611        -12.290
  -2.609        -12.289
  -2.607        -12.287
  -2.605        -12.286
  -2.603        -12.285
  -2.600        -12.283
  -2.598        -12.282
  -2.596        -12.281
  -2.594        -12.280
  -2.592        -12.279
  -2.590        -12.278
  -2.587        -12.277
  -2.585        -12.275
  -2.583        -12.274
  -2.581        -12.273
  -2.579        -12.272
  -2.577        -12.271
  -2.574        -12.270
  -2.572        -12.269
  -2.570        -12.268
  -2.568        -12.267
  -2.566        -12.266
  -2.564        -12.265
  -2.561        -12.265
  -2.559        -12.264
  -2.557        -12.263
  -2.555        -12.262
  -2.553        -12.261
  -2.551        -12.260
  -2.548        -12.260
  -2.546        -12.259
  -2.544        -12.258
  -2.542        -12.258
  -2.540        -12.257
  -2.538        -12.256
  -2.535        -12.256
  -2.533        -12.255
  -2.531        -12.255
  -2.529        -12.254
  -2.527        -12.254
  -2.525        -12.253
  -2.522        -12.253
  -2.520        -12.252
  -2.518        -12.252
  -2.516        -12.251
  -2.514        -12.251
  -2.511        -12.251
  -2.509        -12.250
  -2.507        -12.250
  -2.505        -12.250
  -2.503        -12.249
  -2.501        -12.249
  -2.498        -12.249
  -2.496        -12.249
  -2.494        -12.249
  -2.492        -12.248
  -2.490        -12.248
  -2.488        -12.248
  -2.485        -12.248
  -2.483        -12.248
  -2.481        -12.248
  -2.479        -12.248
  -2.477        -12.248
  -2.475        -12.248
  -2.472        -12.248
  -2.470        -12.249
  -2.468        -12.249
  -2.466        -12.249
  -2.464        -12.249
  -2.462        -12.250
  -2.459        -12.250
  -2.457        -12.250
  -2.455        -12.250
  -2.453        -12.251
  -2.451        -12.251
  -2.448        -12.252
  -2.446        -12.252
  -2.444        -12.253
  -2.442        -12.253
  -2.440        -12.254
  -2.438        -12.254
  -2.435        -12.255
  -2.433        -12.255
  -2.431        -12.256
  -2.429        -12.257
  -2.427        -12.258
  -2.425        -12.258
  -2.422        -12.259
  -2.420        -12.260
  -2.418        -12.261
  -2.416        -12.262
  -2.414        -12.263
  -2.412        -12.264
  -2.409        -12.265
  -2.407        -12.266
  -2.405        -12.267
  -2.403        -12.268
  -2.401        -12.269
  -2.398        -12.270
  -2.396        -12.271
  -2.394        -12.272
  -2.392        -12.274
  -2.390        -12.275
  -2.388        -12.276
  -2.386        -12.278
  -2.383        -12.279
  -2.381        -12.280
  -2.379        -12.282
  -2.377        -12.283
  -2.375        -12.285
  -2.372        -12.287
  -2.370        -12.288
  -2.368        -12.290
  -2.366        -12.292
  -2.364        -12.293
  -2.362        -12.295
  -2.359        -12.297
  -2.357        -12.299
  -2.355        -12.301
  -2.353        -12.302
  -2.351        -12.304
  -2.349        -12.306
  -2.346        -12.308
  -2.344        -12.310
  -2.342        -12.313
  -2.340        -12.315
  -2.338        -12.317
  -2.336        -12.319
  -2.333        -12.321
  -2.331        -12.324
  -2.329        -12.326
  -2.327        -12.328
  -2.325        -12.331
  -2.323        -12.333
  -2.320        -12.336
  -2.318        -12.338
  -2.316        -12.341
  -2.314        -12.344
  -2.312        -12.346
  -2.309        -12.349
  -2.307        -12.352
  -2.305        -12.355
  -2.303        -12.358
  -2.301        -12.360
  -2.299        -12.363
  -2.297        -12.366
  -2.294        -12.369
  -2.292        -12.372
  -2.290        -12.376
  -2.288        -12.379
  -2.286        -12.382
  -2.283        -12.385
  -2.281        -12.389
  -2.279        -12.392
  -2.277        -12.395
  -2.275        -12.399
  -2.273        -12.402
  -2.270        -12.406
  -2.268        -12.409
  -2.266        -12.413
  -2.264        -12.417
  -2.262        -12.420
  -2.260        -12.424
  -2.257        -12.428
  -2.255        -12.432
  -2.253        -12.436
  -2.251        -12.440
  -2.249        -12.444
  -2.247        -12.448
  -2.244        -12.452
  -2.242        -12.456
  -2.240        -12.461
  -2.238        -12.465
  -2.236        -12.469
  -2.234        -12.474
  -2.231        -12.478
  -2.229        -12.483
  -2.227        -12.487
  -2.225        -12.492
  -2.223        -12.496
  -2.220        -12.501
  -2.218        -12.506
  -2.216        -12.511
  -2.214        -12.516
  -2.212        -12.521
  -2.210        -12.526
  -2.207        -12.531
  -2.205        -12.536
  -2.203        -12.541
  -2.201        -12.546
  -2.199        -12.551
  -2.197        -12.557
  -2.194        -12.562
  -2.192        -12.568
  -2.190        -12.573
  -2.188        -12.579
  -2.186        -12.584
  -2.184        -12.590
  -2.181        -12.596
  -2.179        -12.602
  -2.177        -12.608
  -2.175        -12.613
  -2.173        -12.619
  -2.171        -12.626
  -2.168        -12.632
  -2.166        -12.638
  -2.164        -12.644
  -2.162        -12.650
  -2.160        -12.657
  -2.158        -12.663
  -2.155        -12.670
  -2.153        -12.676
  -2.151        -12.683
  -2.149        -12.690
  -2.147        -12.696
  -2.145        -12.703
  -2.142        -12.710
  -2.140        -12.717
  -2.138        -12.724
  -2.136        -12.731
  -2.134        -12.738
  -2.131        -12.746
  -2.129        -12.753
  -2.127        -12.760
  -2.125        -12.768
  -2.123        -12.775
  -2.121        -12.783
  -2.118        -12.790
  -2.116        -12.798
  -2.114        -12.806
  -2.112        -12.814
  -2.110        -12.822
  -2.108        -12.829
  -2.105        -12.838
  -2.103        -12.846
  -2.101        -12.854
  -2.099        -12.862
  -2.097        -12.871
  -2.095        -12.879
  -2.092        -12.888
  -2.090        -12.896
  -2.088        -12.905
  -2.086        -12.913
  -2.084        -12.922
  -2.082        -12.931
  -2.079        -12.940
  -2.077        -12.949
  -2.075        -12.958
  -2.073        -12.967
  -2.071        -12.977
  -2.069        -12.986
  -2.066        -12.996
  -2.064        -13.005
  -2.062        -13.015
  -2.060        -13.024
  -2.058        -13.034
  -2.056        -13.044
  -2.053        -13.054
  -2.051        -13.064
  -2.049        -13.074
  -2.047        -13.084
  -2.045        -13.094
  -2.043        -13.104
  -2.040        -13.115
  -2.038        -13.125
  -2.036        -13.136
  -2.034        -13.147
  -2.032        -13.157
  -2.029        -13.168
  -2.027        -13.179
  -2.025        -13.190
  -2.023        -13.201
  -2.021        -13.212
  -2.019        -13.224
  -2.016        -13.235
  -2.014        -13.247
  -2.012        -13.258
  -2.010        -13.270
  -2.008        -13.281
  -2.006        -13.293
  -2.003        -13.305
  -2.001        -13.317
  -1.999        -13.329
  -1.997        -13.341
  -1.995        -13.354
  -1.993        -13.366
  -1.990        -13.379
  -1.988        -13.391
  -1.986        -13.404
  -1.984        -13.417
  -1.982        -13.429
  -1.980        -13.442
  -1.977        -13.455
  -1.975        -13.468
  -1.973        -13.482
  -1.971        -13.495
  -1.969        -13.509
  -1.967        -13.522
  -1.964        -13.536
  -1.962        -13.550
  -1.960        -13.563
  -1.958        -13.577
  -1.956        -13.591
  -1.953        -13.606
  -1.951        -13.620
  -1.949        -13.634
  -1.947        -13.649
  -1.945        -13.663
  -1.943        -13.678
  -1.940        -13.693
  -1.938        -13.707
  -1.936        -13.722
  -1.934        -13.738
  -1.932        -13.753
  -1.930        -13.768
  -1.927        -13.783
  -1.925        -13.799
  -1.923        -13.815
  -1.921        -13.830
  -1.919        -13.846
  -1.917        -13.862
  -1.914        -13.878
  -1.912        -13.895
  -1.910        -13.911
  -1.908        -13.927
  -1.906        -13.944
  -1.904        -13.961
  -1.901        -13.977
  -1.899        -13.994
  -1.897        -14.011
  -1.895        -14.028
  -1.893        -14.046
  -1.891        -14.063
  -1.888        -14.081
  -1.886        -14.098
  -1.884        -14.116
  -1.882        -14.134
  -1.880        -14.152
  -1.877        -14.170
  -1.875        -14.188
  -1.873        -14.206
  -1.871        -14.225
  -1.869        -14.244
  -1.867        -14.262
  -1.864        -14.281
  -1.862        -14.300
  -1.860        -14.319
  -1.858        -14.338
  -1.856        -14.358
  -1.853        -14.377
  -1.851        -14.397
  -1.849        -14.416
  -1.847        -14.436
  -1.845        -14.456
  -1.843        -14.477
  -1.841        -14.497
  -1.838        -14.517
  -1.836        -14.538
  -1.834        -14.558
  -1.832        -14.579
  -1.830        -14.600
  -1.828        -14.621
  -1.825        -14.643
  -1.823        -14.664
  -1.821        -14.685
  -1.819        -14.707
  -1.817        -14.729
  -1.815        -14.751
  -1.812        -14.773
  -1.810        -14.795
  -1.808        -14.818
  -1.806        -14.840
  -1.804        -14.863
  -1.801        -14.886
  -1.799        -14.908
  -1.797        -14.931
  -1.795        -14.955
  -1.793        -14.978
  -1.791        -15.002
  -1.788        -15.025
  -1.786        -15.049
  -1.784        -15.073
  -1.782        -15.097
  -1.780        -15.122
  -1.777        -15.146
  -1.775        -15.171
  -1.773        -15.196
  -1.771        -15.220
  -1.769        -15.246
  -1.767        -15.271
  -1.764        -15.296
  -1.763        -15.322
  -1.760        -15.347
  -1.758        -15.373
  -1.756        -15.399
  -1.754        -15.425
  -1.752        -15.452
  -1.749        -15.479
  -1.747        -15.505
  -1.745        -15.532
  -1.743        -15.559
  -1.741        -15.586
  -1.739        -15.613
  -1.736        -15.641
  -1.734        -15.669
  -1.732        -15.697
  -1.730        -15.725
  -1.728        -15.753
  -1.726        -15.781
  -1.723        -15.810
  -1.721        -15.839
  -1.719        -15.868
  -1.717        -15.897
  -1.715        -15.926
  -1.713        -15.955
  -1.710        -15.985
  -1.708        -16.015
  -1.706        -16.045
  -1.704        -16.075
  -1.702        -16.105
  -1.699        -16.136
  -1.697        -16.166
  -1.695        -16.197
  -1.693        -16.229
  -1.691        -16.260
  -1.689        -16.291
  -1.686        -16.323
  -1.684        -16.355
  -1.682        -16.386
  -1.680        -16.419
  -1.678        -16.451
  -1.675        -16.484
  -1.673        -16.517
  -1.671        -16.549
  -1.669        -16.583
  -1.667        -16.616
  -1.665        -16.650
  -1.663        -16.683
  -1.660        -16.717
  -1.658        -16.751
  -1.656        -16.785
  -1.654        -16.820
  -1.652        -16.854
  -1.650        -16.889
  -1.647        -16.924
  -1.645        -16.959
  -1.643        -16.995
  -1.641        -17.030
  -1.639        -17.066
  -1.637        -17.102
  -1.634        -17.138
  -1.632        -17.174
  -1.630        -17.211
  -1.628        -17.247
  -1.626        -17.284
  -1.623        -17.321
  -1.621        -17.358
  -1.619        -17.395
  -1.617        -17.432
  -1.615        -17.470
  -1.613        -17.507
  -1.611        -17.545
  -1.608        -17.583
  -1.606        -17.621
  -1.604        -17.659
  -1.602        -17.697
  -1.600        -17.735
  -1.597        -17.773
  -1.595        -17.811
  -1.593        -17.849
  -1.591        -17.887
  -1.589        -17.925
  -1.587        -17.963
  -1.584        -18.001
  -1.582        -18.039
  -1.580        -18.077
  -1.578        -18.114
  -1.576        -18.151
  -1.573        -18.188
  -1.571        -18.225
  -1.569        -18.261
  -1.567        -18.297
  -1.565        -18.332
  -1.563        -18.367
  -1.561        -18.401
  -1.558        -18.435
  -1.556        -18.467
  -1.554        -18.500
  -1.552        -18.531
  -1.550        -18.562
  -1.547        -18.591
  -1.545        -18.620
  -1.543        -18.647
  -1.541        -18.674
  -1.539        -18.700
  -1.537        -18.724
  -1.534        -18.747
  -1.532        -18.770
  -1.530        -18.791
  -1.528        -18.811
  -1.526        -18.829
  -1.524        -18.847
  -1.522        -18.864
  -1.519        -18.879
  -1.517        -18.893
  -1.515        -18.907
  -1.513        -18.919
  -1.511        -18.931
  -1.508        -18.941
  -1.506        -18.951
  -1.504        -18.960
  -1.502        -18.968
  -1.500        -18.976
  -1.498        -18.983
  -1.495        -18.989
  -1.493        -18.995
  -1.491        -19.000
  -1.489        -19.005
  -1.487        -19.010
  -1.484        -19.014
  -1.482        -19.017
  -1.480        -19.021
  -1.478        -19.024
  -1.476        -19.027
  -1.474        -19.030
  -1.472        -19.032
  -1.469        -19.034
  -1.467        -19.036
  -1.465        -19.038
  -1.463        -19.040
  -1.461        -19.042
  -1.458        -19.044
  -1.456        -19.045
  -1.454        -19.046
  -1.452        -19.048
  -1.450        -19.049
  -1.448        -19.050
  -1.445        -19.051
  -1.443        -19.052
  -1.441        -19.054
  -1.439        -19.055
  -1.437        -19.056
  -1.435        -19.057
  -1.432        -19.058
  -1.430        -19.058
  -1.428        -19.059
  -1.426        -19.060
  -1.424        -19.061
  -1.422        -19.062
  -1.419        -19.063
  -1.417        -19.064
  -1.415        -19.065
  -1.413        -19.065
  -1.411        -19.066
  -1.409        -19.067
  -1.406        -19.068
  -1.404        -19.069
  -1.402        -19.069
  -1.400        -19.070
  -1.398        -19.071
  -1.396        -19.072
  -1.393        -19.073
  -1.391        -19.073
  -1.389        -19.074
  -1.387        -19.075
  -1.385        -19.076
  -1.383        -19.076
  -1.380        -19.077
  -1.378        -19.078
  -1.376        -19.079
  -1.374        -19.080
  -1.372        -19.080
  -1.370        -19.081
  -1.367        -19.082
  -1.365        -19.082
  -1.363        -19.083
  -1.361        -19.084
  -1.359        -19.085
  -1.356        -19.086
  -1.354        -19.086
  -1.352        -19.087
  -1.350        -19.088
  -1.348        -19.089
  -1.346        -19.089
  -1.343        -19.090
  -1.341        -19.091
  -1.339        -19.092
  -1.337        -19.092
  -1.335        -19.093
  -1.333        -19.094
  -1.330        -19.095
  -1.328        -19.095
  -1.326        -19.096
  -1.324        -19.097
  -1.322        -19.098
  -1.320        -19.098
  -1.317        -19.099
  -1.315        -19.100
  -1.313        -19.100
  -1.311        -19.101
  -1.309        -19.102
  -1.307        -19.102
  -1.304        -19.103
  -1.302        -19.104
  -1.300        -19.105
  -1.298        -19.105
  -1.296        -19.106
  -1.293        -19.107
  -1.291        -19.107
  -1.289        -19.108
  -1.287        -19.109
  -1.285        -19.110
  -1.283        -19.111
  -1.280        -19.111
  -1.278        -19.112
  -1.276        -19.112
  -1.274        -19.113
  -1.272        -19.114
  -1.270        -19.115
  -1.267        -19.116
  -1.265        -19.116
  -1.263        -19.117
  -1.261        -19.118
  -1.259        -19.118
  -1.257        -19.119
  -1.254        -19.120
  -1.252        -19.121
  -1.250        -19.121
  -1.248        -19.122
  -1.246        -19.122
  -1.243        -19.123
  -1.241        -19.124
  -1.239        -19.125
  -1.237        -19.125
  -1.235        -19.126
  -1.233        -19.127
  -1.231        -19.128
  -1.228        -19.128
  -1.226        -19.129
  -1.224        -19.130
  -1.222        -19.131
  -1.220        -19.131
  -1.217        -19.132
  -1.215        -19.133
  -1.213        -19.133
  -1.211        -19.134
  -1.209        -19.135
  -1.207        -19.136
  -1.204        -19.136
  -1.202        -19.137
  -1.200        -19.138
  -1.198        -19.138
  -1.196        -19.139
  -1.194        -19.140
  -1.191        -19.140
  -1.189        -19.141
  -1.187        -19.142
  -1.185        -19.143
  -1.183        -19.143
  -1.181        -19.144
  -1.178        -19.145
  -1.176        -19.146
  -1.174        -19.147
  -1.172        -19.147
  -1.170        -19.148
  -1.168        -19.149
  -1.165        -19.150
  -1.163        -19.150
  -1.161        -19.151
  -1.159        -19.152
  -1.157        -19.153
  -1.155        -19.153
  -1.152        -19.154
  -1.150        -19.155
  -1.148        -19.156
  -1.146        -19.157
  -1.144        -19.158
  -1.142        -19.158
  -1.139        -19.159
  -1.137        -19.160
  -1.135        -19.161
  -1.133        -19.162
  -1.131        -19.163
  -1.129        -19.164
  -1.126        -19.164
  -1.124        -19.165
  -1.122        -19.166
  -1.120        -19.167
  -1.118        -19.168
  -1.115        -19.169
  -1.113        -19.170
  -1.111        -19.171
  -1.109        -19.172
  -1.107        -19.173
  -1.105        -19.173
  -1.102        -19.174
  -1.100        -19.176
  -1.098        -19.176
  -1.096        -19.177
  -1.094        -19.178
  -1.092        -19.179
  -1.089        -19.181
  -1.087        -19.181
  -1.085        -19.182
  -1.083        -19.184
  -1.081        -19.185
  -1.079        -19.186
  -1.076        -19.187
  -1.074        -19.188
  -1.072        -19.189
  -1.070        -19.190
  -1.068        -19.191
  -1.066        -19.193
  -1.063        -19.194
  -1.061        -19.195
  -1.059        -19.196
  -1.057        -19.197
  -1.055        -19.199
  -1.052        -19.200
  -1.050        -19.201
  -1.048        -19.203
  -1.046        -19.204
  -1.044        -19.205
  -1.042        -19.207
  -1.039        -19.208
  -1.037        -19.210
  -1.035        -19.211
  -1.033        -19.212
  -1.031        -19.214
  -1.029        -19.216
  -1.026        -19.217
  -1.024        -19.219
  -1.022        -19.221
  -1.020        -19.222
  -1.018        -19.224
  -1.016        -19.225
  -1.013        -19.227
  -1.011        -19.229
  -1.009        -19.230
  -1.007        -19.232
  -1.005        -19.234
  -1.003        -19.236
  -1.000        -19.238
  -0.998        -19.239
  -0.996        -19.241
  -0.994        -19.243
  -0.992        -19.244
  -0.990        -19.246
  -0.987        -19.248
  -0.985        -19.250
  -0.983        -19.251
  -0.981        -19.253
  -0.979        -19.255
  -0.977        -19.256
  -0.974        -19.258
  -0.972        -19.260
  -0.970        -19.262
  -0.968        -19.263
  -0.966        -19.265
  -0.963        -19.267
  -0.961        -19.268
  -0.959        -19.270
  -0.957        -19.271
  -0.955        -19.273
  -0.953        -19.275
  -0.950        -19.276
  -0.948        -19.278
  -0.946        -19.279
  -0.944        -19.281
  -0.942        -19.282
  -0.940        -19.283
  -0.937        -19.285
  -0.935        -19.286
  -0.933        -19.288
  -0.931        -19.289
  -0.929        -19.291
  -0.927        -19.292
  -0.924        -19.293
  -0.922        -19.294
  -0.920        -19.296
  -0.918        -19.297
  -0.916        -19.298
  -0.914        -19.300
  -0.911        -19.301
  -0.909        -19.302
  -0.907        -19.303
  -0.905        -19.305
  -0.903        -19.306
  -0.900        -19.307
  -0.898        -19.308
  -0.896        -19.309
  -0.894        -19.310
  -0.892        -19.311
  -0.890        -19.312
  -0.887        -19.313
  -0.885        -19.315
  -0.883        -19.316
  -0.881        -19.316
  -0.879        -19.317
  -0.877        -19.318
  -0.874        -19.319
  -0.872        -19.320
  -0.870        -19.321
  -0.868        -19.322
  -0.866        -19.323
  -0.864        -19.323
  -0.862        -19.324
  -0.859        -19.325
  -0.857        -19.325
  -0.855        -19.326
  -0.853        -19.327
  -0.851        -19.327
  -0.848        -19.328
  -0.846        -19.328
  -0.844        -19.329
  -0.842        -19.330
  -0.840        -19.330
  -0.838        -19.330
  -0.835        -19.331
  -0.833        -19.331
  -0.831        -19.331
  -0.829        -19.332
  -0.827        -19.332
  -0.825        -19.333
  -0.822        -19.333
  -0.820        -19.333
  -0.818        -19.333
  -0.816        -19.333
  -0.814        -19.333
  -0.812        -19.334
  -0.809        -19.334
  -0.807        -19.334
  -0.805        -19.334
  -0.803        -19.334
  -0.801        -19.334
  -0.799        -19.334
  -0.796        -19.334
  -0.794        -19.334
  -0.792        -19.334
  -0.790        -19.334
  -0.788        -19.334
  -0.785        -19.334
  -0.783        -19.334
  -0.781        -19.334
  -0.779        -19.333
  -0.777        -19.333
  -0.774        -19.333
  -0.772        -19.332
  -0.770        -19.332
  -0.768        -19.332
  -0.766        -19.332
  -0.764        -19.331
  -0.762        -19.331
  -0.759        -19.331
  -0.757        -19.330
  -0.755        -19.329
  -0.753        -19.329
  -0.751        -19.328
  -0.748        -19.328
  -0.746        -19.327
  -0.744        -19.327
  -0.742        -19.326
  -0.740        -19.326
  -0.738        -19.325
  -0.736        -19.324
  -0.733        -19.323
  -0.731        -19.323
  -0.729        -19.322
  -0.727        -19.321
  -0.725        -19.320
  -0.723        -19.319
  -0.720        -19.319
  -0.718        -19.318
  -0.716        -19.317
  -0.714        -19.316
  -0.712        -19.315
  -0.709        -19.314
  -0.707        -19.313
  -0.705        -19.312
  -0.703        -19.311
  -0.701        -19.310
  -0.699        -19.309
  -0.697        -19.308
  -0.694        -19.307
  -0.692        -19.306
  -0.690        -19.305
  -0.688        -19.304
  -0.685        -19.303
  -0.683        -19.301
  -0.681        -19.300
  -0.679        -19.299
  -0.677        -19.298
  -0.675        -19.297
  -0.673        -19.295
  -0.670        -19.294
  -0.668        -19.293
  -0.666        -19.291
  -0.664        -19.290
  -0.662        -19.289
  -0.659        -19.287
  -0.657        -19.286
  -0.655        -19.285
  -0.653        -19.283
  -0.651        -19.282
  -0.649        -19.280
  -0.647        -19.279
  -0.644        -19.277
  -0.642        -19.276
  -0.640        -19.274
  -0.638        -19.273
  -0.636        -19.271
  -0.633        -19.270
  -0.631        -19.268
  -0.629        -19.267
  -0.627        -19.265
  -0.625        -19.263
  -0.623        -19.261
  -0.621        -19.260
  -0.618        -19.258
  -0.616        -19.256
  -0.614        -19.255
  -0.612        -19.253
  -0.610        -19.251
  -0.608        -19.248
  -0.605        -19.247
  -0.603        -19.245
  -0.601        -19.243
  -0.599        -19.241
  -0.596        -19.239
  -0.594        -19.236
  -0.592        -19.234
  -0.590        -19.232
  -0.588        -19.230
  -0.586        -19.227
  -0.584        -19.225
  -0.581        -19.223
  -0.579        -19.220
  -0.577        -19.218
  -0.575        -19.215
  -0.573        -19.213
  -0.571        -19.211
  -0.568        -19.208
  -0.566        -19.206
  -0.564        -19.204
  -0.562        -19.201
  -0.560        -19.199
  -0.557        -19.196
  -0.555        -19.194
  -0.553        -19.192
  -0.551        -19.189
  -0.549        -19.187
  -0.547        -19.185
  -0.544        -19.182
  -0.542        -19.180
  -0.540        -19.178
  -0.538        -19.175
  -0.536        -19.173
  -0.534        -19.170
  -0.531        -19.168
  -0.529        -19.166
  -0.527        -19.163
  -0.525        -19.161
  -0.523        -19.158
  -0.521        -19.156
  -0.518        -19.154
  -0.516        -19.151
  -0.514        -19.149
  -0.512        -19.146
  -0.510        -19.144
  -0.507        -19.141
  -0.505        -19.139
  -0.503        -19.136
  -0.501        -19.134
  -0.499        -19.131
  -0.497        -19.129
  -0.495        -19.126
  -0.492        -19.124
  -0.490        -19.121
  -0.488        -19.119
  -0.486        -19.116
  -0.484        -19.114
  -0.482        -19.111
  -0.479        -19.108
  -0.477        -19.106
  -0.475        -19.103
  -0.473        -19.101
  -0.471        -19.098
  -0.468        -19.096
  -0.466        -19.093
  -0.464        -19.090
  -0.462        -19.088
  -0.460        -19.085
  -0.458        -19.082
  -0.455        -19.080
  -0.453        -19.077
  -0.451        -19.075
  -0.449        -19.072
  -0.447        -19.069
  -0.445        -19.067
  -0.442        -19.064
  -0.440        -19.062
  -0.438        -19.059
  -0.436        -19.057
  -0.434        -19.054
  -0.432        -19.052
  -0.429        -19.049
  -0.427        -19.046
  -0.425        -19.044
  -0.423        -19.041
  -0.421        -19.039
  -0.419        -19.037
  -0.416        -19.034
  -0.414        -19.032
  -0.412        -19.030
  -0.410        -19.027
  -0.408        -19.025
  -0.405        -19.023
  -0.403        -19.020
  -0.401        -19.018
  -0.399        -19.016
  -0.397        -19.014
  -0.395        -19.011
  -0.392        -19.009
  -0.390        -19.007
  -0.388        -19.005
  -0.386        -19.002
  -0.384        -19.000
  -0.382        -18.998
  -0.379        -18.996
  -0.377        -18.993
  -0.375        -18.991
  -0.373        -18.989
  -0.371        -18.987
  -0.369        -18.985
  -0.366        -18.983
  -0.364        -18.980
  -0.362        -18.979
  -0.360        -18.976
  -0.358        -18.974
  -0.356        -18.972
  -0.353        -18.970
  -0.351        -18.968
  -0.349        -18.965
  -0.347        -18.963
  -0.345        -18.961
  -0.343        -18.959
  -0.340        -18.957
  -0.338        -18.955
  -0.336        -18.953
  -0.334        -18.950
  -0.332        -18.948
  -0.330        -18.946
  -0.327        -18.944
  -0.325        -18.942
  -0.323        -18.940
  -0.321        -18.938
  -0.319        -18.936
  -0.316        -18.934
  -0.314        -18.932
  -0.312        -18.930
  -0.310        -18.928
  -0.308        -18.926
  -0.306        -18.924
  -0.303        -18.923
  -0.301        -18.921
  -0.299        -18.919
  -0.297        -18.918
  -0.295        -18.916
  -0.293        -18.915
  -0.290        -18.913
  -0.288        -18.912
  -0.286        -18.911
  -0.284        -18.909
  -0.282        -18.908
  -0.280        -18.906
  -0.277        -18.905
  -0.275        -18.904
  -0.273        -18.903
  -0.271        -18.902
  -0.269        -18.901
  -0.267        -18.900
  -0.264        -18.898
  -0.262        -18.897
  -0.260        -18.896
  -0.258        -18.895
  -0.256        -18.894
  -0.253        -18.893
  -0.251        -18.892
  -0.249        -18.891
  -0.247        -18.890
  -0.245        -18.889
  -0.243        -18.888
  -0.241        -18.887
  -0.238        -18.887
  -0.236        -18.886
  -0.234        -18.885
  -0.232        -18.884
  -0.230        -18.884
  -0.227        -18.883
  -0.225        -18.882
  -0.223        -18.882
  -0.221        -18.881
  -0.219        -18.880
  -0.217        -18.880
  -0.214        -18.879
  -0.212        -18.879
  -0.210        -18.878
  -0.208        -18.878
  -0.206        -18.877
  -0.204        -18.877
  -0.201        -18.876
  -0.199        -18.876
  -0.197        -18.875
  -0.195        -18.875
  -0.193        -18.875
  -0.191        -18.875
  -0.188        -18.874
  -0.186        -18.874
  -0.184        -18.874
  -0.182        -18.874
  -0.180        -18.873
  -0.178        -18.873
  -0.175        -18.873
  -0.173        -18.873
  -0.171        -18.873
  -0.169        -18.873
  -0.167        -18.874
  -0.164        -18.874
  -0.162        -18.874
  -0.160        -18.874
  -0.158        -18.874
  -0.156        -18.874
  -0.154        -18.874
  -0.151        -18.875
  -0.149        -18.875
  -0.147        -18.875
  -0.145        -18.876
  -0.143        -18.876
  -0.141        -18.877
  -0.138        -18.877
  -0.136        -18.877
  -0.134        -18.878
  -0.132        -18.878
  -0.130        -18.879
  -0.128        -18.879
  -0.125        -18.879
  -0.123        -18.880
  -0.121        -18.880
  -0.119        -18.880
  -0.117        -18.881
  -0.115        -18.881
  -0.112        -18.882
  -0.110        -18.882
  -0.108        -18.882
  -0.106        -18.882
  -0.104        -18.883
  -0.102        -18.883
  -0.099        -18.883
  -0.097        -18.883
  -0.095        -18.884
  -0.093        -18.884
  -0.091        -18.884
  -0.089        -18.884
  -0.086        -18.884
  -0.084        -18.884
  -0.082        -18.884
  -0.080        -18.884
  -0.078        -18.885
  -0.075        -18.885
  -0.073        -18.885
  -0.071        -18.885
  -0.069        -18.885
  -0.067        -18.885
  -0.065        -18.885
  -0.063        -18.885
  -0.060        -18.885
  -0.058        -18.885
  -0.056        -18.885
  -0.054        -18.885
  -0.052        -18.885
  -0.049        -18.886
  -0.047        -18.886
  -0.045        -18.886
  -0.043        -18.886
  -0.041        -18.886
  -0.039        -18.886
  -0.036        -18.886
  -0.034        -18.886
  -0.032        -18.887
  -0.030        -18.887
  -0.028        -18.887
  -0.026        -18.887
  -0.023        -18.887
  -0.021        -18.887
  -0.019        -18.887
  -0.017        -18.887
  -0.015        -18.887
  -0.013        -18.888
  -0.010        -18.888
  -0.008        -18.888
  -0.006        -18.888
  -0.004        -18.888
  -0.002        -18.888
   0.000        -18.888
   0.003        -18.888
   0.005        -18.888
   0.007        -18.888
   0.009        -18.889
   0.011        -18.889
   0.013        -18.889
   0.016        -18.889
   0.018        -18.889
   0.020        -18.889
   0.022        -18.889
   0.024        -18.889
   0.027        -18.889
   0.029        -18.889
   0.031        -18.889
   0.033        -18.889
   0.035        -18.890
   0.037        -18.890
   0.040        -18.890
   0.042        -18.890
   0.044        -18.890
   0.046        -18.890
   0.048        -18.890
   0.050        -18.891
   0.053        -18.891
   0.055        -18.891
   0.057        -18.891
   0.059        -18.891
   0.061        -18.891
   0.063        -18.891
   0.066        -18.892
   0.068        -18.892
   0.070        -18.892
   0.072        -18.892
   0.074        -18.892
   0.076        -18.892
   0.079        -18.892
   0.081        -18.892
   0.083        -18.892
   0.085        -18.892
   0.087        -18.892
   0.089        -18.892
   0.092        -18.892
   0.094        -18.892
   0.096        -18.892
   0.098        -18.892
   0.100        -18.892
   0.103        -18.892
   0.105        -18.892
   0.107        -18.892
   0.109        -18.892
   0.111        -18.892
   0.113        -18.892
   0.116        -18.892
   0.118        -18.892
   0.120        -18.892
   0.122        -18.892
   0.124        -18.891
   0.126        -18.891
   0.128        -18.891
   0.131        -18.891
   0.133        -18.891
   0.135        -18.891
   0.137        -18.891
   0.139        -18.891
   0.142        -18.891
   0.144        -18.890
   0.146        -18.890
   0.148        -18.890
   0.150        -18.890
   0.153        -18.890
   0.155        -18.889
   0.157        -18.889
   0.159        -18.889
   0.161        -18.889
   0.163        -18.889
   0.165        -18.889
   0.168        -18.889
   0.170        -18.888
   0.172        -18.888
   0.174        -18.888
   0.176        -18.888
   0.178        -18.888
   0.181        -18.888
   0.183        -18.888
   0.185        -18.888
   0.187        -18.888
   0.189        -18.889
   0.192        -18.889
   0.194        -18.889
   0.196        -18.889
   0.198        -18.889
   0.200        -18.890
   0.202        -18.890
   0.205        -18.891
   0.207        -18.891
   0.209        -18.892
   0.211        -18.892
   0.213        -18.893
   0.215        -18.893
   0.218        -18.894
   0.220        -18.894
   0.222        -18.895
   0.224        -18.896
   0.226        -18.896
   0.229        -18.897
   0.231        -18.898
   0.233        -18.898
   0.235        -18.899
   0.237        -18.900
   0.239        -18.900
   0.241        -18.901
   0.244        -18.902
   0.246        -18.903
   0.248        -18.904
   0.250        -18.904
   0.252        -18.905
   0.254        -18.906
   0.257        -18.906
   0.259        -18.907
   0.261        -18.908
   0.263        -18.909
   0.265        -18.910
   0.267        -18.910
   0.270        -18.911
   0.272        -18.912
   0.274        -18.913
   0.276        -18.914
   0.278        -18.915
   0.281        -18.916
   0.283        -18.916
   0.285        -18.917
   0.287        -18.918
   0.289        -18.919
   0.291        -18.920
   0.293        -18.921
   0.296        -18.922
   0.298        -18.923
   0.300        -18.924
   0.302        -18.925
   0.305        -18.926
   0.307        -18.927
   0.309        -18.928
   0.311        -18.930
   0.313        -18.931
   0.315        -18.932
   0.318        -18.933
   0.320        -18.934
   0.322        -18.935
   0.324        -18.937
   0.326        -18.938
   0.328        -18.939
   0.330        -18.940
   0.333        -18.942
   0.335        -18.943
   0.337        -18.944
   0.339        -18.945
   0.341        -18.946
   0.344        -18.948
   0.346        -18.949
   0.348        -18.950
   0.350        -18.952
   0.352        -18.953
   0.354        -18.954
   0.356        -18.956
   0.359        -18.957
   0.361        -18.959
   0.363        -18.960
   0.365        -18.961
   0.367        -18.963
   0.369        -18.964
   0.372        -18.965
   0.374        -18.967
   0.376        -18.968
   0.378        -18.970
   0.380        -18.971
   0.383        -18.972
   0.385        -18.974
   0.387        -18.975
   0.389        -18.977
   0.391        -18.979
   0.393        -18.980
   0.396        -18.982
   0.398        -18.983
   0.400        -18.985
   0.402        -18.987
   0.404        -18.988
   0.406        -18.990
   0.409        -18.992
   0.411        -18.994
   0.413        -18.996
   0.415        -18.998
   0.417        -19.000
   0.420        -19.002
   0.422        -19.004
   0.424        -19.006
   0.426        -19.008
   0.428        -19.010
   0.430        -19.012
   0.432        -19.014
   0.435        -19.016
   0.437        -19.019
   0.439        -19.021
   0.441        -19.023
   0.443        -19.025
   0.446        -19.027
   0.448        -19.030
   0.450        -19.032
   0.452        -19.035
   0.454        -19.037
   0.456        -19.040
   0.459        -19.043
   0.461        -19.045
   0.463        -19.048
   0.465        -19.051
   0.467        -19.053
   0.469        -19.056
   0.472        -19.058
   0.474        -19.061
   0.476        -19.063
   0.478        -19.065
   0.480        -19.068
   0.482        -19.070
   0.485        -19.073
   0.487        -19.075
   0.489        -19.077
   0.491        -19.078
   0.493        -19.079
   0.495        -19.080
   0.498        -19.080
   0.500        -19.081
   0.502        -19.082
   0.504        -19.082
   0.506        -19.083
   0.510        -19.084
   0.512        -19.083
   0.513        -19.083
   0.515        -19.082
   0.517        -19.082
   0.519        -19.081
   0.522        -19.081
   0.524        -19.080
   0.526        -19.079
   0.528        -19.079
   0.530        -19.078
   0.532        -19.077
   0.535        -19.077
   0.537        -19.076
   0.539        -19.075
   0.541        -19.075
   0.543        -19.074
   0.545        -19.074
   0.548        -19.073
   0.550        -19.072
   0.552        -19.072
   0.554        -19.071
   0.556        -19.071
   0.558        -19.070
   0.561        -19.069
   0.563        -19.069
   0.565        -19.068
   0.567        -19.068
   0.569        -19.067
   0.572        -19.067
   0.574        -19.066
   0.576        -19.065
   0.578        -19.065
   0.580        -19.064
   0.582        -19.064
   0.585        -19.063
   0.587        -19.062
   0.589        -19.062
   0.591        -19.061
   0.593        -19.061
   0.595        -19.060
   0.598        -19.059
   0.600        -19.059
   0.602        -19.058
   0.604        -19.058
   0.606        -19.057
   0.608        -19.056
   0.611        -19.056
   0.613        -19.055
   0.615        -19.055
   0.617        -19.054
   0.619        -19.053
   0.621        -19.053
   0.624        -19.052
   0.626        -19.051
   0.628        -19.050
   0.630        -19.049
   0.632        -19.049
   0.634        -19.048
   0.637        -19.047
   0.639        -19.046
   0.641        -19.045
   0.643        -19.044
   0.645        -19.044
   0.647        -19.043
   0.650        -19.042
   0.652        -19.041
   0.654        -19.040
   0.656        -19.039
   0.658        -19.039
   0.660        -19.038
   0.663        -19.037
   0.665        -19.037
   0.667        -19.036
   0.669        -19.036
   0.671        -19.035
   0.673        -19.034
   0.676        -19.034
   0.678        -19.033
   0.680        -19.033
   0.682        -19.032
   0.684        -19.032
   0.687        -19.031
   0.689        -19.031
   0.691        -19.030
   0.693        -19.030
   0.695        -19.029
   0.697        -19.029
   0.700        -19.028
   0.702        -19.028
   0.704        -19.027
   0.706        -19.027
   0.708        -19.026
   0.710        -19.026
   0.713        -19.025
   0.715        -19.025
   0.717        -19.024
   0.719        -19.024
   0.721        -19.023
   0.723        -19.023
   0.726        -19.022
   0.728        -19.022
   0.730        -19.021
   0.732        -19.021
   0.734        -19.020
   0.736        -19.020
   0.739        -19.020
   0.741        -19.019
   0.743        -19.019
   0.745        -19.018
   0.747        -19.018
   0.750        -19.017
   0.752        -19.017
   0.754        -19.016
   0.756        -19.016
   0.758        -19.016
   0.760        -19.015
   0.762        -19.015
   0.765        -19.015
   0.767        -19.015
   0.769        -19.014
   0.771        -19.014
   0.773        -19.014
   0.776        -19.014
   0.778        -19.013
   0.780        -19.013
   0.782        -19.014
   0.784        -19.014
   0.786        -19.015
   0.789        -19.016
   0.791        -19.017
   0.793        -19.018
   0.795        -19.019
   0.797        -19.020
   0.799        -19.020
   0.802        -19.021
   0.804        -19.023
   0.806        -19.025
   0.808        -19.027
   0.810        -19.028
   0.812        -19.030
   0.815        -19.032
   0.817        -19.034
   0.819        -19.036
   0.821        -19.037
   0.823        -19.039
   0.825        -19.042
   0.828        -19.044
   0.830        -19.046
   0.832        -19.048
   0.834        -19.051
   0.836        -19.053
   0.838        -19.055
   0.841        -19.057
   0.843        -19.060
   0.845        -19.062
   0.847        -19.065
   0.849        -19.067
   0.852        -19.070
   0.854        -19.072
   0.856        -19.075
   0.858        -19.077
   0.860        -19.079
   0.862        -19.082
   0.865        -19.085
   0.867        -19.087
   0.869        -19.090
   0.871        -19.092
   0.873        -19.095
   0.875        -19.098
   0.878        -19.100
   0.880        -19.103
   0.882        -19.105
   0.884        -19.108
   0.886        -19.111
   0.888        -19.115
   0.891        -19.118
   0.893        -19.121
   0.895        -19.124
   0.897        -19.128
   0.899        -19.131
   0.901        -19.134
   0.904        -19.137
   0.906        -19.141
   0.908        -19.145
   0.910        -19.149
   0.912        -19.152
   0.915        -19.156
   0.917        -19.160
   0.919        -19.164
   0.921        -19.168
   0.923        -19.172
   0.925        -19.176
   0.928        -19.181
   0.930        -19.185
   0.932        -19.190
   0.934        -19.195
   0.936        -19.200
   0.938        -19.205
   0.941        -19.209
   0.943        -19.214
   0.945        -19.219
   0.947        -19.224
   0.949        -19.230
   0.951        -19.237
   0.954        -19.244
   0.956        -19.250
   0.958        -19.257
   0.960        -19.263
   0.962        -19.270
   0.964        -19.277
   0.967        -19.283
   0.969        -19.289
   0.971        -19.294
   0.973        -19.299
   0.975        -19.304
   0.977        -19.309
   0.980        -19.314
   0.982        -19.319
   0.984        -19.325
   0.986        -19.330
   0.988        -19.339
   0.990        -19.350
   0.993        -19.355
   0.995        -19.361
   0.997        -19.367
   0.999        -19.373
   1.001        -19.379
   1.004        -19.385
   1.006        -19.391
   1.008        -19.397
   1.010        -19.404
   1.012        -19.415
   1.014        -19.427
   1.017        -19.439
   1.019        -19.450
   1.021        -19.462
   1.023        -19.473
   1.025        -19.485
   1.027        -19.496
   1.030        -19.508
   1.032        -19.523
   1.034        -19.540
   1.036        -19.557
   1.038        -19.574
   1.040        -19.591
   1.043        -19.608
   1.045        -19.625
   1.047        -19.642
   1.049        -19.659
   1.051        -19.677
   1.053        -19.704
   1.056        -19.732
   1.058        -19.760
   1.060        -19.788
   1.062        -19.816
   1.064        -19.844
   1.066        -19.872
   1.069        -19.899
   1.071        -19.927
   1.073        -19.974
   1.075        -20.039
   1.077        -20.104
   1.079        -20.169
   1.082        -20.234
   1.084        -20.299
   1.086        -20.364
   1.088        -20.429
   1.090        -20.494
   1.093        -20.562
   1.095        -20.657
   1.097        -20.760
   1.099        -20.862
   1.101        -20.965
   1.103        -21.068
   1.106        -21.171
   1.108        -21.274
   1.110        -21.377
   1.112        -21.493
   1.114        -21.555
   1.117        -21.558
   1.119        -21.561
   1.121        -21.564
   1.123        -21.567
   1.125        -21.570
   1.127        -21.574
   1.129        -21.577
   1.131        -21.580
   1.134        -21.583
   1.136        -21.586
   1.138        -21.589
   1.140        -21.593
   1.143        -21.595
   1.145        -21.598
   1.147        -21.601
   1.149        -21.604
   1.151        -21.608
   1.153        -21.611
   1.155        -21.613
   1.158        -21.615
   1.160        -21.617
   1.162        -21.620
   1.164        -21.622
   1.166        -21.624
   1.169        -21.627
   1.171        -21.629
   1.173        -21.631
   1.175        -21.634
   1.177        -21.636
   1.180        -21.639
   1.181        -21.641
   1.184        -21.643
   1.186        -21.646
   1.188        -21.649
   1.190        -21.651
   1.192        -21.654
   1.195        -21.656
   1.197        -21.659
   1.199        -21.661
   1.201        -21.663
   1.203        -21.666
   1.205        -21.668
   1.208        -21.671
   1.210        -21.673
   1.212        -21.675
   1.214        -21.678
   1.216        -21.680
   1.218        -21.682
   1.220        -21.685
   1.223        -21.687
   1.225        -21.690
   1.227        -21.692
   1.229        -21.694
   1.232        -21.697
   1.234        -21.699
   1.236        -21.701
   1.238        -21.704
   1.240        -21.705
   1.242        -21.707
   1.245        -21.709
   1.247        -21.710
   1.249        -21.711
   1.251        -21.713
   1.253        -21.715
   1.255        -21.716
   1.258        -21.718
   1.260        -21.720
   1.262        -21.722
   1.264        -21.724
   1.266        -21.726
   1.268        -21.728
   1.270        -21.729
   1.273        -21.731
   1.275        -21.734
   1.277        -21.735
   1.279        -21.737
   1.281        -21.739
   1.284        -21.742
   1.286        -21.744
   1.288        -21.747
   1.290        -21.749
   1.292        -21.751
   1.294        -21.753
   1.297        -21.756
   1.299        -21.758
   1.301        -21.761
   1.303        -21.764
   1.305        -21.767
   1.307        -21.770
   1.310        -21.773
   1.312        -21.776
   1.314        -21.779
   1.316        -21.782
   1.318        -21.785
   1.320        -21.788
   1.323        -21.792
   1.325        -21.797
   1.327        -21.801
   1.329        -21.805
   1.331        -21.809
   1.334        -21.814
   1.336        -21.818
   1.338        -21.822
   1.340        -21.826
   1.342        -21.831
   1.344        -21.836
   1.346        -21.841
   1.349        -21.846
   1.351        -21.851
   1.353        -21.856
   1.355        -21.861
   1.357        -21.866
   1.359        -21.871
   1.362        -21.876
   1.364        -21.881
   1.366        -21.886
   1.368        -21.891
   1.370        -21.896
   1.373        -21.901
   1.375        -21.906
   1.377        -21.911
   1.379        -21.916
   1.381        -21.921
   1.383        -21.924
   1.386        -21.926
   1.388        -21.928
   1.390        -21.930
   1.392        -21.932
   1.394        -21.934
   1.397        -21.936
   1.399        -21.937
   1.401        -21.939
   1.403        -21.941
   1.405        -21.943
   1.407        -21.946
   1.410        -21.948
   1.412        -21.951
   1.414        -21.953
   1.416        -21.956
   1.418        -21.958
   1.420        -21.961
   1.423        -21.963
   1.425        -21.966
   1.427        -21.969
   1.429        -21.972
   1.431        -21.975
   1.433        -21.978
   1.436        -21.980
   1.438        -21.984
   1.440        -21.986
   1.442        -21.989
   1.444        -21.992
   1.446        -21.996
   1.449        -21.999
   1.451        -22.002
   1.453        -22.006
   1.455        -22.009
   1.457        -22.013
   1.460        -22.016
   1.462        -22.019
   1.464        -22.023
   1.466        -22.026
   1.468        -22.029
   1.470        -22.033
   1.472        -22.036
   1.475        -22.039
   1.477        -22.042
   1.479        -22.045
   1.481        -22.049
   1.483        -22.052
   1.486        -22.055
   1.488        -22.058
   1.490        -22.060
   1.492        -22.062
   1.494        -22.064
   1.496        -22.066
   1.498        -22.068
   1.501        -22.071
   1.503        -22.073
   1.505        -22.075
   1.507        -22.077
   1.509        -22.077
   1.512        -22.077
   1.514        -22.076
   1.516        -22.076
   1.518        -22.076
   1.520        -22.075
   1.522        -22.075
   1.525        -22.074
   1.527        -22.074
   1.529        -22.072
   1.531        -22.067
   1.533        -22.062
   1.535        -22.057
   1.538        -22.052
   1.540        -22.047
   1.542        -22.042
   1.544        -22.037
   1.546        -22.032
   1.549        -22.027
   1.551        -22.019
   1.553        -22.010
   1.555        -22.001
   1.557        -21.991
   1.559        -21.982
   1.561        -21.973
   1.564        -21.964
   1.566        -21.955
   1.568        -21.946
   1.570        -21.936
   1.572        -21.922
   1.575        -21.909
   1.577        -21.895
   1.579        -21.881
   1.581        -21.867
   1.583        -21.854
   1.585        -21.840
   1.588        -21.826
   1.590        -21.942
   1.592        -22.261
   1.594        -22.265
   1.596        -22.269
   1.598        -22.273
   1.601        -22.278
   1.603        -22.282
   1.605        -22.286
   1.607        -22.290
   1.609        -22.294
   1.611        -22.298
   1.614        -22.304
   1.616        -22.310
   1.618        -22.315
   1.620        -22.321
   1.622        -22.327
   1.624        -22.333
   1.627        -22.339
   1.629        -22.344
   1.631        -22.350
   1.633        -22.357
   1.635        -22.364
   1.637        -22.372
   1.640        -22.379
   1.642        -22.387
   1.644        -22.395
   1.646        -22.402
   1.648        -22.410
   1.651        -22.418
   1.653        -22.425
   1.655        -22.436
   1.657        -22.447
   1.659        -22.458
   1.661        -22.470
   1.664        -22.481
   1.666        -22.492
   1.668        -22.503
   1.670        -22.515
   1.672        -22.526
   1.674        -22.539
   1.676        -22.560
   1.679        -22.581
   1.681        -22.601
   1.683        -22.622
   1.685        -22.643
   1.687        -22.664
   1.690        -22.685
   1.692        -22.706
   1.694        -22.727
   1.696        -22.780
   1.699        -22.869
   1.701        -22.946
   1.703        -23.018
   1.705        -23.089
   1.707        -23.167
   1.709        -23.244
   1.711        -23.322
   1.714        -23.407
   1.716        -23.423
   1.718        -23.453
   1.720        -23.483
   1.722        -23.519
   1.724        -23.555
   1.727        -23.592
   1.729        -23.628
   1.731        -23.664
   1.733        -23.701
   1.735        -23.737
   1.737        -23.769
   1.739        -23.794
   1.742        -23.820
   1.744        -23.845
   1.746        -23.871
   1.748        -23.896
   1.750        -23.921
   1.753        -23.947
   1.755        -23.972
   1.757        -23.997
   1.759        -24.012
   1.761        -24.025
   1.763        -24.037
   1.766        -24.050
   1.768        -24.062
   1.770        -24.075
   1.772        -24.088
   1.774        -24.100
   1.776        -24.113
   1.779        -24.124
   1.781        -24.129
   1.783        -24.133
   1.785        -24.138
   1.787        -24.143
   1.789        -24.148
   1.792        -24.153
   1.794        -24.158
   1.796        -24.163
   1.798        -24.167
   1.800        -24.170
   1.802        -24.172
   1.805        -24.174
   1.807        -24.176
   1.809        -24.177
   1.811        -24.179
   1.813        -24.181
   1.816        -24.183
   1.818        -24.184
   1.820        -24.186
   1.822        -24.187
   1.824        -24.188
   1.826        -24.188
   1.829        -24.189
   1.831        -24.190
   1.833        -24.191
   1.835        -24.192
   1.837        -24.192
   1.839        -24.193
   1.842        -24.194
   1.844        -24.194
   1.846        -24.195
   1.848        -24.196
   1.850        -24.196
   1.852        -24.197
   1.855        -24.197
   1.857        -24.198
   1.859        -24.198
   1.861        -24.199
   1.863        -24.199
   1.865        -24.200
   1.868        -24.200
   1.870        -24.201
   1.872        -24.201
   1.874        -24.201
   1.876        -24.202
   1.878        -24.202
   1.881        -24.203
   1.883        -24.203
   1.885        -24.204
   1.887        -24.204
   1.889        -24.204
   1.891        -24.205
   1.894        -24.205
   1.896        -24.206
   1.898        -24.206
   1.900        -24.206
   1.902        -24.207
   1.905        -24.207
   1.907        -24.208
   1.909        -24.208
   1.911        -24.208
   1.913        -24.209
   1.915        -24.209
   1.918        -24.210
   1.920        -24.210
   1.922        -24.210
   1.924        -24.211
   1.926        -24.211
   1.928        -24.211
   1.931        -24.212
   1.933        -24.212
   1.935        -24.212
   1.937        -24.213
   1.939        -24.213
   1.941        -24.213
   1.944        -24.214
   1.946        -24.214
   1.948        -24.215
   1.950        -24.215
   1.952        -24.215
   1.954        -24.216
   1.957        -24.216
   1.959        -24.217
   1.961        -24.217
   1.963        -24.217
   1.965        -24.218
   1.967        -24.218
   1.970        -24.218
   1.972        -24.219
   1.974        -24.219
   1.976        -24.219
   1.978        -24.219
   1.980        -24.220
   1.983        -24.220
   1.985        -24.220
   1.987        -24.221
   1.989        -24.221
   1.991        -24.221
   1.993        -24.222
   1.996        -24.222
   1.998        -24.222
   2.000        -24.222
   2.002        -24.223
   2.004        -24.223
   2.007        -24.223
   2.009        -24.223
   2.011        -24.224
   2.013        -24.224
   2.015        -24.224
   2.017        -24.225
   2.020        -24.225
   2.022        -24.225
   2.024        -24.225
   2.026        -24.226
   2.028        -24.226
   2.030        -24.226
   2.033        -24.226
   2.035        -24.226
   2.037        -24.226
   2.039        -24.227
   2.041        -24.227
   2.043        -24.227
   2.046        -24.227
   2.048        -24.227
   2.050        -24.227
   2.052        -24.227
   2.054        -24.228
   2.056        -24.228
   2.059        -24.228
   2.061        -24.228
   2.063        -24.228
   2.065        -24.228
   2.067        -24.228
   2.069        -24.228
   2.072        -24.229
   2.074        -24.229
   2.076        -24.229
   2.078        -24.229
   2.080        -24.229
   2.083        -24.229
   2.085        -24.229
   2.087        -24.229
   2.089        -24.229
   2.091        -24.229
   2.093        -24.229
   2.096        -24.230
   2.098        -24.230
   2.100        -24.230
   2.102        -24.230
   2.104        -24.230
   2.106        -24.230
   2.109        -24.230
   2.111        -24.230
   2.113        -24.230
   2.115        -24.230
   2.117        -24.230
   2.120        -24.230
   2.122        -24.230
   2.124        -24.229
   2.126        -24.229
   2.128        -24.229
   2.130        -24.229
   2.133        -24.229
   2.135        -24.228
   2.137        -24.228
   2.139        -24.227
   2.141        -24.227
   2.143        -24.227
   2.145        -24.227
   2.148        -24.227
   2.150        -24.226
   2.152        -24.226
   2.154        -24.226
   2.157        -24.225
   2.158        -24.225
   2.161        -24.225
   2.163        -24.224
   2.165        -24.224
   2.167        -24.223
   2.169        -24.223
   2.172        -24.223
   2.174        -24.222
   2.176        -24.222
   2.178        -24.221
   2.180        -24.221
   2.183        -24.220
   2.185        -24.220
   2.187        -24.219
   2.189        -24.219
   2.191        -24.218
   2.193        -24.218
   2.195        -24.217
   2.197        -24.217
   2.200        -24.216
   2.202        -24.216
   2.204        -24.215
   2.206        -24.215
   2.208        -24.214
   2.211        -24.213
   2.213        -24.213
   2.215        -24.212
   2.217        -24.212
   2.219        -24.211
   2.221        -24.210
   2.224        -24.210
   2.226        -24.209
   2.228        -24.208
   2.230        -24.208
   2.232        -24.207
   2.235        -24.206
   2.237        -24.206
   2.239        -24.205
   2.241        -24.204
   2.243        -24.203
   2.245        -24.202
   2.247        -24.202
   2.250        -24.201
   2.252        -24.200
   2.254        -24.199
   2.256        -24.199
   2.259        -24.198
   2.261        -24.197
   2.263        -24.196
   2.265        -24.195
   2.267        -24.194
   2.269        -24.193
   2.271        -24.192
   2.274        -24.192
   2.276        -24.191
   2.278        -24.190
   2.280        -24.189
   2.282        -24.188
   2.284        -24.187
   2.287        -24.186
   2.289        -24.185
   2.291        -24.184
   2.293        -24.183
   2.295        -24.182
   2.297        -24.181
   2.299        -24.180
   2.302        -24.179
   2.304        -24.178
   2.306        -24.177
   2.308        -24.176
   2.310        -24.174
   2.313        -24.173
   2.315        -24.172
   2.317        -24.171
   2.319        -24.170
   2.321        -24.169
   2.323        -24.168
   2.326        -24.167
   2.328        -24.165
   2.330        -24.164
   2.332        -24.163
   2.334        -24.162
   2.337        -24.161
   2.339        -24.160
   2.341        -24.158
   2.343        -24.157
   2.345        -24.156
   2.347        -24.155
   2.349        -24.153
   2.352        -24.152
   2.354        -24.151
   2.356        -24.149
   2.358        -24.148
   2.360        -24.147
   2.363        -24.146
   2.365        -24.144
   2.367        -24.143
   2.369        -24.142
   2.371        -24.140
   2.374        -24.139
   2.376        -24.138
   2.378        -24.136
   2.380        -24.135
   2.382        -24.134
   2.384        -24.132
   2.386        -24.131
   2.389        -24.130
   2.391        -24.128
   2.393        -24.127
   2.395        -24.126
   2.397        -24.124
   2.400        -24.123
   2.402        -24.122
   2.404        -24.121
   2.406        -24.120
   2.408        -24.120
   2.410        -24.119
   2.413        -24.119
   2.415        -24.118
   2.417        -24.118
   2.419        -24.117
   2.421        -24.117
   2.423        -24.116
   2.425        -24.116
   2.428        -24.115
   2.430        -24.115
   2.432        -24.114
   2.434        -24.114
   2.436        -24.113
   2.439        -24.113
   2.441        -24.112
   2.443        -24.112
   2.445        -24.111
   2.447        -24.110
   2.449        -24.108
   2.452        -24.107
   2.454        -24.106
   2.456        -24.104
   2.458        -24.103
   2.460        -24.102
   2.462        -24.100
   2.465        -24.099
   2.467        -24.098
   2.469        -24.096
   2.471        -24.095
   2.473        -24.093
   2.475        -24.092
   2.478        -24.090
   2.480        -24.089
   2.482        -24.088
   2.484        -24.086
   2.486        -24.085
   2.489        -24.083
   2.491        -24.082
   2.493        -24.080
   2.495        -24.079
   2.497        -24.077
   2.499        -24.076
   2.502        -24.075
   2.504        -24.073
   2.506        -24.072
   2.508        -24.070
   2.510        -24.069
   2.512        -24.068
   2.514        -24.066
   2.517        -24.065
   2.519        -24.064
   2.521        -24.062
   2.523        -24.061
   2.525        -24.059
   2.528        -24.058
   2.530        -24.057
   2.532        -24.056
   2.534        -24.054
   2.536        -24.053
   2.538        -24.052
   2.541        -24.050
   2.543        -24.049
   2.545        -24.048
   2.547        -24.047
   2.549        -24.045
   2.552        -24.044
   2.554        -24.043
   2.556        -24.042
   2.558        -24.041
   2.560        -24.040
   2.562        -24.039
   2.565        -24.038
   2.567        -24.036
   2.569        -24.035
   2.571        -24.035
   2.573        -24.033
   2.575        -24.033
   2.578        -24.032
   2.580        -24.031
   2.582        -24.030
   2.584        -24.029
   2.586        -24.028
   2.588        -24.027
   2.590        -24.026
   2.593        -24.025
   2.595        -24.025
   2.597        -24.024
   2.599        -24.023
   2.601        -24.023
   2.604        -24.022
   2.606        -24.022
   2.608        -24.021
   2.610        -24.020
   2.612        -24.020
   2.614        -24.020
   2.617        -24.020
   2.619        -24.020
   2.621        -24.020
   2.623        -24.020
   2.625        -24.020
   2.627        -24.019
   2.630        -24.020
   2.632        -24.020
   2.634        -24.021
   2.636        -24.022
   2.638        -24.023
   2.641        -24.024
   2.643        -24.025
   2.645        -24.026
   2.647        -24.028
   2.649        -24.029
   2.651        -24.030
   2.654        -24.032
   2.656        -24.035
   2.658        -24.039
   2.660        -24.042
   2.662        -24.046
   2.664        -24.049
   2.666        -24.053
   2.669        -24.056
   2.671        -24.060
   2.673        -24.063
   2.675        -24.069
   2.677        -24.075
   2.680        -24.081
   2.682        -24.087
   2.684        -24.093
   2.686        -24.099
   2.688        -24.105
   2.690        -24.111
   2.693        -24.117
   2.695        -24.124
   2.697        -24.130
   2.699        -24.136
   2.701        -24.143
   2.703        -24.149
   2.706        -24.156
   2.708        -24.162
   2.710        -24.169
   2.712        -24.175
   2.714        -24.182
   2.716        -24.188
   2.719        -24.193
   2.721        -24.198
   2.723        -24.204
   2.725        -24.209
   2.727        -24.215
   2.729        -24.220
   2.732        -24.226
   2.734        -24.232
   2.736        -24.237
   2.738        -24.242
   2.740        -24.247
   2.743        -24.252
   2.745        -24.257
   2.747        -24.262
   2.749        -24.266
   2.751        -24.271
   2.753        -24.276
   2.756        -24.281
   2.758        -24.286
   2.760        -24.290
   2.762        -24.295
   2.764        -24.300
   2.766        -24.304
   2.769        -24.309
   2.771        -24.314
   2.773        -24.318
   2.775        -24.323
   2.777        -24.328
   2.779        -24.332
   2.782        -24.336
   2.784        -24.341
   2.786        -24.345
   2.788        -24.349
   2.790        -24.354
   2.792        -24.358
   2.795        -24.362
   2.797        -24.367
   2.799        -24.371
   2.801        -24.375
   2.803        -24.379
   2.805        -24.383
   2.808        -24.387
   2.810        -24.391
   2.812        -24.395
   2.814        -24.400
   2.816        -24.404
   2.819        -24.408
   2.821        -24.412
   2.823        -24.416
   2.825        -24.419
   2.827        -24.423
   2.829        -24.427
   2.832        -24.431
   2.834        -24.434
   2.836        -24.438
   2.838        -24.442
   2.840        -24.446
   2.842        -24.449
   2.845        -24.453
   2.847        -24.456
   2.849        -24.459
   2.851        -24.463
   2.853        -24.466
   2.855        -24.470
   2.858        -24.473
   2.860        -24.476
   2.862        -24.480
   2.864        -24.483
   2.866        -24.486
   2.868        -24.489
   2.871        -24.492
   2.873        -24.496
   2.875        -24.499
   2.877        -24.502
   2.879        -24.505
   2.881        -24.508
   2.884        -24.511
   2.886        -24.514
   2.888        -24.517
   2.890        -24.520
   2.892        -24.523
   2.894        -24.527
   2.897        -24.530
   2.899        -24.533
   2.901        -24.536
   2.903        -24.539
   2.905        -24.541
   2.908        -24.544
   2.910        -24.547
   2.912        -24.549
   2.914        -24.552
   2.916        -24.555
   2.918        -24.557
   2.921        -24.560
   2.923        -24.562
   2.925        -24.565
   2.927        -24.567
   2.929        -24.569
   2.931        -24.571
   2.934        -24.573
   2.936        -24.575
   2.938        -24.577
   2.940        -24.580
   2.942        -24.582
   2.944        -24.584
   2.947        -24.586
   2.949        -24.588
   2.951        -24.590
   2.953        -24.591
   2.955        -24.593
   2.957        -24.595
   2.960        -24.597
   2.962        -24.599
   2.964        -24.601
   2.966        -24.603
   2.968        -24.605
   2.970        -24.606
   2.973        -24.608
   2.975        -24.610
   2.977        -24.611
   2.979        -24.613
   2.981        -24.615
   2.984        -24.617
   2.986        -24.618
   2.988        -24.620
   2.990        -24.622
   2.992        -24.623
   2.994        -24.625
   2.997        -24.626
   2.999        -24.628
   3.001        -24.630
   3.003        -24.631
   3.005        -24.633
   3.007        -24.634
   3.010        -24.636
   3.012        -24.637
   3.014        -24.639
   3.016        -24.640
   3.018        -24.642
   3.020        -24.643
   3.023        -24.645
   3.025        -24.646
   3.027        -24.648
   3.029        -24.649
   3.031        -24.651
   3.033        -24.652
   3.036        -24.654
   3.038        -24.655
   3.040        -24.657
   3.042        -24.658
   3.044        -24.659
   3.046        -24.661
   3.049        -24.662
   3.051        -24.664
   3.053        -24.665
   3.055        -24.667
   3.057        -24.668
   3.060        -24.670
   3.062        -24.671
   3.064        -24.673
   3.066        -24.674
   3.068        -24.675
   3.070        -24.677
   3.073        -24.678
   3.075        -24.680
   3.077        -24.681
   3.079        -24.682
   3.081        -24.684
   3.083        -24.685
   3.086        -24.687
   3.088        -24.688
   3.090        -24.689
   3.092        -24.691
   3.094        -24.692
   3.096        -24.693
   3.099        -24.695
   3.101        -24.696
   3.103        -24.697
   3.105        -24.698
   3.107        -24.700
   3.109        -24.701
   3.112        -24.702
   3.114        -24.703
   3.116        -24.705
   3.118        -24.706
   3.120        -24.707
   3.123        -24.708
   3.125        -24.709
   3.127        -24.710
   3.129        -24.712
   3.131        -24.713
   3.133        -24.714
   3.136        -24.715
   3.138        -24.716
   3.140        -24.717
   3.142        -24.719
   3.144        -24.720
   3.146        -24.721
   3.149        -24.722
   3.151        -24.723
   3.153        -24.725
   3.155        -24.726
   3.157        -24.727
   3.159        -24.728
   3.162        -24.729
   3.164        -24.730
   3.166        -24.731
   3.168        -24.733
   3.170        -24.734
   3.172        -24.735
   3.175        -24.736
   3.177        -24.737
   3.179        -24.738
   3.181        -24.740
   3.183        -24.741
   3.185        -24.742
   3.188        -24.743
   3.190        -24.745
   3.192        -24.746
   3.194        -24.747
   3.196        -24.748
   3.199        -24.750
   3.201        -24.751
   3.203        -24.752
   3.205        -24.754
   3.207        -24.755
   3.209        -24.756
   3.212        -24.758
   3.214        -24.759
   3.216        -24.760
   3.218        -24.762
   3.220        -24.763
   3.222        -24.764
   3.225        -24.765
   3.227        -24.767
   3.229        -24.768
   3.231        -24.769
   3.233        -24.771
   3.236        -24.772
   3.237        -24.773
   3.240        -24.775
   3.242        -24.776
   3.244        -24.777
   3.246        -24.778
   3.248        -24.779
   3.251        -24.780
   3.253        -24.781
   3.255        -24.782
   3.257        -24.784
   3.259        -24.784
   3.261        -24.785
   3.263        -24.786
   3.266        -24.787
   3.268        -24.788
   3.270        -24.789
   3.272        -24.789
   3.274        -24.790
   3.277        -24.791
   3.279        -24.792
   3.281        -24.792
   3.283        -24.793
   3.285        -24.794
   3.287        -24.794
   3.290        -24.795
   3.292        -24.795
   3.294        -24.796
   3.296        -24.797
   3.298        -24.797
   3.301        -24.799
   3.303        -24.800
   3.305        -24.801
   3.307        -24.802
   3.309        -24.804
   3.311        -24.805
   3.313        -24.806
   3.316        -24.807
   3.318        -24.809
   3.320        -24.810
   3.322        -24.811
   3.324        -24.813
   3.327        -24.814
   3.329        -24.815
   3.331        -24.817
   3.333        -24.818
   3.335        -24.819
   3.337        -24.821
   3.340        -24.822
   3.342        -24.823
   3.344        -24.824
   3.346        -24.826
   3.348        -24.827
   3.350        -24.828
   3.352        -24.830
   3.355        -24.831
   3.357        -24.832
   3.359        -24.834
   3.361        -24.835
   3.363        -24.836
   3.366        -24.838
   3.368        -24.838
   3.370        -24.840
   3.372        -24.841
   3.374        -24.842
   3.376        -24.843
   3.379        -24.845
   3.381        -24.846
   3.383        -24.847
   3.385        -24.848
   3.387        -24.850
   3.389        -24.851
   3.392        -24.852
   3.394        -24.853
   3.396        -24.854
   3.398        -24.855
   3.400        -24.857
   3.402        -24.857
   3.405        -24.858
   3.407        -24.860
   3.409        -24.861
   3.411        -24.862
   3.413        -24.863
   3.416        -24.864
   3.418        -24.865
   3.420        -24.866
   3.422        -24.867
   3.424        -24.868
   3.426        -24.870
   3.429        -24.871
   3.431        -24.872
   3.433        -24.873
   3.435        -24.874
   3.437        -24.875
   3.439        -24.876
   3.442        -24.877
   3.444        -24.879
   3.446        -24.880
   3.448        -24.881
   3.450        -24.882
   3.452        -24.883
   3.455        -24.884
   3.457        -24.885
   3.459        -24.886
   3.461        -24.887
   3.463        -24.888
   3.466        -24.889
   3.468        -24.891
   3.470        -24.892
   3.472        -24.893
   3.474        -24.894
   3.476        -24.895
   3.478        -24.896
   3.481        -24.897
   3.483        -24.898
   3.485        -24.899
   3.487        -24.901
   3.489        -24.902
   3.492        -24.903
   3.494        -24.904
   3.496        -24.905
   3.498        -24.906
   3.500        -24.907
   3.502        -24.908
   3.505        -24.909
   3.507        -24.910
   3.509        -24.911
   3.511        -24.912
   3.513        -24.913
   3.515        -24.914
   3.518        -24.915
   3.520        -24.916
   3.522        -24.917
   3.524        -24.918
   3.526        -24.919
   3.528        -24.920
   3.531        -24.921
   3.533        -24.922
   3.535        -24.923
   3.537        -24.924
   3.539        -24.925
   3.541        -24.926
   3.544        -24.927
   3.546        -24.928
   3.548        -24.929
   3.550        -24.930
   3.552        -24.932
   3.555        -24.932
   3.557        -24.934
   3.559        -24.934
   3.561        -24.935
   3.563        -24.936
   3.565        -24.937
   3.568        -24.938
   3.570        -24.939
   3.572        -24.940
   3.574        -24.941
   3.576        -24.942
   3.578        -24.943
   3.581        -24.944
   3.583        -24.945
   3.585        -24.946
   3.587        -24.947
   3.589        -24.948
   3.591        -24.949
   3.594        -24.950
   3.596        -24.951
   3.598        -24.952
   3.600        -24.952
   3.602        -24.953
   3.604        -24.954
   3.607        -24.955
   3.609        -24.956
   3.611        -24.957
   3.613        -24.958
   3.615        -24.959
   3.617        -24.960
   3.620        -24.961
   3.622        -24.961
   3.624        -24.962
   3.626        -24.963
   3.628        -24.964
   3.630        -24.965
   3.633        -24.966
   3.635        -24.966
   3.637        -24.967
   3.639        -24.968
   3.641        -24.969
   3.644        -24.970
   3.646        -24.971
   3.648        -24.972
   3.650        -24.972
   3.652        -24.973
   3.654        -24.974
   3.657        -24.975
   3.659        -24.976
   3.661        -24.976
   3.663        -24.978
   3.665        -24.978
   3.667        -24.979
   3.670        -24.980
   3.672        -24.981
   3.674        -24.981
   3.676        -24.982
   3.678        -24.983
   3.680        -24.984
   3.683        -24.985
   3.685        -24.985
   3.687        -24.986
   3.689        -24.987
   3.691        -24.988
   3.693        -24.989
   3.696        -24.989
   3.698        -24.990
   3.700        -24.991
   3.702        -24.992
   3.704        -24.992
   3.706        -24.993
   3.709        -24.994
   3.711        -24.995
   3.713        -24.996
   3.715        -24.996
   3.717        -24.997
   3.719        -24.998
   3.722        -24.999
   3.724        -25.000
   3.726        -25.000
   3.728        -25.001
   3.730        -25.002
   3.733        -25.003
   3.735        -25.003
   3.737        -25.004
   3.739        -25.005
   3.741        -25.006
   3.743        -25.007
   3.746        -25.008
   3.748        -25.008
   3.750        -25.009
   3.752        -25.010
   3.754        -25.011
   3.756        -25.011
   3.759        -25.013
   3.761        -25.014
   3.763        -25.015
   3.765        -25.016
   3.767        -25.017
   3.769        -25.018
   3.772        -25.019
   3.774        -25.020
   3.776        -25.021
   3.778        -25.022
   3.780        -25.024
   3.782        -25.026
   3.785        -25.028
   3.787        -25.029
   3.789        -25.031
   3.791        -25.033
   3.793        -25.034
   3.795        -25.036
   3.798        -25.038
   3.800        -25.040
   3.802        -25.043
   3.804        -25.046
   3.806        -25.048
   3.809        -25.051
   3.811        -25.053
   3.813        -25.056
   3.815        -25.059
   3.817        -25.061
   3.819        -25.064
   3.822        -25.066
   3.824        -25.069
   3.826        -25.072
   3.828        -25.074
   3.830        -25.077
   3.832        -25.080
   3.835        -25.082
   3.837        -25.085
   3.839        -25.088
   3.841        -25.090
   3.843        -25.091
   3.845        -25.093
   3.848        -25.095
   3.850        -25.096
   3.852        -25.098
   3.854        -25.099
   3.856        -25.101
   3.858        -25.103
   3.861        -25.104
   3.863        -25.105
   3.865        -25.106
   3.867        -25.107
   3.869        -25.107
   3.871        -25.108
   3.874        -25.109
   3.876        -25.110
   3.878        -25.110
   3.880        -25.111
   3.882        -25.112
   3.885        -25.113
   3.887        -25.113
   3.889        -25.114
   3.891        -25.115
   3.899        -25.118
   3.912        -25.122
   3.925        -25.127
   3.938        -25.132
   3.951        -25.136
   3.964        -25.140
   3.977        -25.144
   3.990        -25.148
   4.003        -25.152
   4.016        -25.156
   4.029        -25.160
   4.042        -25.164
   4.055        -25.168
   4.068        -25.172
   4.081        -25.176
   4.094        -25.180
   4.107        -25.184
   4.120        -25.188
   4.133        -25.192
   4.146        -25.195
   4.159        -25.198
   4.172        -25.201
   4.185        -25.204
   4.198        -25.207
   4.211        -25.210
   4.224        -25.213
   4.237        -25.216
   4.250        -25.220
   4.263        -25.224
   4.276        -25.228
   4.289        -25.233
   4.302        -25.238
   4.315        -25.244
   4.328        -25.250
   4.341        -25.257
   4.354        -25.264
   4.367        -25.272
   4.380        -25.280
   4.393        -25.288
   4.406        -25.298
   4.420        -25.308
   4.432        -25.318
   4.445        -25.328
   4.459        -25.339
   4.471        -25.350
   4.484        -25.362
   4.498        -25.374
   4.510        -25.385
   4.524        -25.398
   4.537        -25.410
   4.550        -25.423
   4.563        -25.436
   4.576        -25.449
   4.589        -25.463
   4.602        -25.476
   4.615        -25.490
   4.628        -25.504
   4.641        -25.518
   4.654        -25.533
   4.667        -25.547
   4.680        -25.562
   4.693        -25.576
   4.706        -25.592
   4.719        -25.607
   4.732        -25.622
   4.745        -25.637
   4.758        -25.653
   4.771        -25.668
   4.784        -25.684
   4.797        -25.700
   4.810        -25.716
   4.823        -25.732
   4.836        -25.749
   4.849        -25.765
   4.862        -25.782
   4.875        -25.799
   4.888        -25.816
   4.901        -25.833
   4.914        -25.850
   4.927        -25.868
   4.940        -25.885
   4.953        -25.903
   4.966        -25.921
   4.979        -25.939
   4.992        -25.957
   5.005        -25.975
   5.018        -25.993
   5.031        -26.012
   5.044        -26.031
   5.057        -26.050
   5.070        -26.069
   5.083        -26.088
   5.096        -26.108
   5.109        -26.127
   5.123        -26.147
   5.136        -26.166
   5.149        -26.186
   5.162        -26.206
   5.175        -26.226
   5.188        -26.246
   5.201        -26.266
   5.214        -26.287
   5.227        -26.307
   5.240        -26.327
   5.253        -26.347
   5.266        -26.367
   5.279        -26.388
   5.292        -26.408
   5.305        -26.428
   5.318        -26.448
   5.331        -26.469
   5.344        -26.489
   5.357        -26.510
   5.370        -26.531
   5.383        -26.551
   5.396        -26.573
   5.409        -26.594
   5.422        -26.615
   5.435        -26.637
   5.448        -26.659
   5.461        -26.681
   5.474        -26.703
   5.487        -26.725
   5.500        -26.748
   5.513        -26.771
   5.526        -26.794
   5.539        -26.818
   5.552        -26.842
   5.565        -26.866
   5.578        -26.891
   5.591        -26.916
   5.604        -26.941
   5.617        -26.966
   5.630        -26.992
   5.643        -27.018
   5.656        -27.045
   5.669        -27.071
   5.682        -27.099
   5.695        -27.127
   5.708        -27.154
   5.721        -27.183
   5.734        -27.212
   5.748        -27.242
   5.761        -27.272
   5.774        -27.303
   5.787        -27.334
   5.800        -27.366
   5.813        -27.398
   5.826        -27.431
   5.839        -27.464
   5.852        -27.498
   5.865        -27.533
   5.878        -27.568
   5.891        -27.605
   5.904        -27.641
   5.917        -27.679
   5.930        -27.717
   5.943        -27.757
   5.956        -27.796
   5.969        -27.836
   5.982        -27.878
   5.995        -27.921
   6.008        -27.964
   6.021        -28.009
   6.034        -28.053
   6.047        -28.099
   6.060        -28.147
   6.073        -28.196
   6.086        -28.245
   6.099        -28.296
   6.112        -28.347
   6.125        -28.400
   6.138        -28.454
   6.151        -28.509
   6.164        -28.566
   6.177        -28.624
   6.190        -28.683
   6.203        -28.744
   6.216        -28.807
   6.229        -28.871
   6.242        -28.936
   6.255        -29.003
   6.268        -29.073
   6.281        -29.143
   6.294        -29.215
   6.307        -29.288
   6.320        -29.364
   6.334        -29.442
   6.346        -29.522
   6.359        -29.603
   6.372        -29.687
   6.386        -29.773
   6.399        -29.861
   6.411        -29.952
   6.425        -30.045
   6.438        -30.142
   6.451        -30.240
   6.464        -30.339
   6.477        -30.441
   6.490        -30.546
   6.503        -30.656
   6.516        -30.767
   6.529        -30.880
   6.542        -30.999
   6.555        -31.120
   6.568        -31.243
   6.581        -31.370
   6.594        -31.502
   6.607        -31.640
   6.620        -31.778
   6.633        -31.917
   6.646        -32.060
   6.659        -32.209
   6.672        -32.364
   6.685        -32.521
   6.698        -32.683
   6.711        -32.850
   6.724        -33.023
   6.737        -33.198
   6.750        -33.376
   6.763        -33.566
   6.776        -33.765
   6.789        -33.960
   6.802        -34.156
   6.815        -34.354
   6.828        -34.583
   6.841        -34.835
   6.854        -35.133
   6.867        -35.762
   6.880        -36.815
   6.893        -40.566
