# log Energy    log Jnu
# (eV)          (ergs/s/cm2/Hz/Sr)
  -6.864        -20.597
  -6.820        -20.510
  -6.777        -20.423
  -6.734        -20.336
  -6.690        -20.249
  -6.647        -20.163
  -6.603        -20.076
  -6.560        -19.989
  -6.516        -19.902
  -6.473        -19.815
  -6.430        -19.728
  -6.386        -19.641
  -6.343        -19.555
  -6.299        -19.468
  -6.256        -19.381
  -6.212        -19.294
  -6.169        -19.207
  -6.126        -19.120
  -6.082        -19.034
  -6.039        -18.947
  -5.995        -18.860
  -5.952        -18.773
  -5.908        -18.686
  -5.865        -18.600
  -5.822        -18.513
  -5.778        -18.426
  -5.735        -18.339
  -5.691        -18.252
  -5.648        -18.166
  -5.605        -18.079
  -5.561        -17.992
  -5.518        -17.906
  -5.474        -17.819
  -5.431        -17.732
  -5.387        -17.645
  -5.344        -17.559
  -5.300        -17.472
  -5.257        -17.385
  -5.214        -17.299
  -5.170        -17.212
  -5.127        -17.125
  -5.083        -17.039
  -5.040        -16.952
  -4.996        -16.866
  -4.953        -16.780
  -4.910        -16.693
  -4.866        -16.607
  -4.823        -16.520
  -4.779        -16.434
  -4.736        -16.348
  -4.692        -16.262
  -4.649        -16.176
  -4.606        -16.090
  -4.562        -16.004
  -4.519        -15.919
  -4.475        -15.833
  -4.432        -15.748
  -4.388        -15.663
  -4.345        -15.577
  -4.302        -15.492
  -4.258        -15.408
  -4.215        -15.323
  -4.171        -15.239
  -4.128        -15.155
  -4.084        -15.071
  -4.041        -14.988
  -3.998        -14.905
  -3.954        -14.823
  -3.911        -14.741
  -3.867        -14.660
  -3.824        -14.579
  -3.781        -14.499
  -3.737        -14.419
  -3.693        -14.341
  -3.650        -14.263
  -3.607        -14.187
  -3.584        -14.151
  -3.582        -14.141
  -3.580        -14.140
  -3.577        -14.137
  -3.575        -14.133
  -3.573        -14.129
  -3.571        -14.125
  -3.569        -14.122
  -3.567        -14.118
  -3.564        -14.114
  -3.562        -14.110
  -3.560        -14.107
  -3.558        -14.103
  -3.556        -14.099
  -3.554        -14.095
  -3.551        -14.092
  -3.549        -14.088
  -3.547        -14.084
  -3.545        -14.081
  -3.543        -14.077
  -3.540        -14.073
  -3.538        -14.069
  -3.536        -14.066
  -3.534        -14.062
  -3.532        -14.058
  -3.530        -14.055
  -3.528        -14.051
  -3.525        -14.047
  -3.523        -14.043
  -3.521        -14.040
  -3.519        -14.036
  -3.517        -14.032
  -3.514        -14.029
  -3.512        -14.025
  -3.510        -14.021
  -3.508        -14.018
  -3.506        -14.014
  -3.504        -14.010
  -3.502        -14.007
  -3.499        -14.003
  -3.497        -14.000
  -3.495        -13.996
  -3.493        -13.992
  -3.491        -13.989
  -3.488        -13.985
  -3.486        -13.982
  -3.484        -13.978
  -3.482        -13.974
  -3.480        -13.971
  -3.477        -13.967
  -3.475        -13.963
  -3.473        -13.960
  -3.471        -13.956
  -3.469        -13.953
  -3.467        -13.949
  -3.464        -13.946
  -3.462        -13.942
  -3.460        -13.938
  -3.458        -13.935
  -3.456        -13.931
  -3.454        -13.928
  -3.451        -13.924
  -3.449        -13.920
  -3.447        -13.917
  -3.445        -13.913
  -3.443        -13.910
  -3.441        -13.906
  -3.438        -13.903
  -3.436        -13.899
  -3.434        -13.896
  -3.432        -13.892
  -3.430        -13.889
  -3.428        -13.885
  -3.425        -13.882
  -3.423        -13.878
  -3.421        -13.875
  -3.419        -13.871
  -3.417        -13.868
  -3.415        -13.864
  -3.412        -13.861
  -3.410        -13.857
  -3.408        -13.854
  -3.406        -13.850
  -3.404        -13.847
  -3.402        -13.844
  -3.399        -13.840
  -3.397        -13.837
  -3.395        -13.833
  -3.393        -13.830
  -3.391        -13.826
  -3.389        -13.823
  -3.386        -13.820
  -3.384        -13.816
  -3.382        -13.813
  -3.380        -13.809
  -3.378        -13.806
  -3.376        -13.803
  -3.373        -13.799
  -3.371        -13.796
  -3.369        -13.792
  -3.367        -13.789
  -3.365        -13.786
  -3.362        -13.782
  -3.360        -13.779
  -3.358        -13.776
  -3.356        -13.772
  -3.354        -13.769
  -3.352        -13.766
  -3.349        -13.762
  -3.347        -13.759
  -3.345        -13.756
  -3.343        -13.752
  -3.341        -13.749
  -3.339        -13.746
  -3.336        -13.743
  -3.334        -13.739
  -3.332        -13.736
  -3.330        -13.733
  -3.328        -13.730
  -3.326        -13.726
  -3.323        -13.723
  -3.321        -13.720
  -3.319        -13.717
  -3.317        -13.713
  -3.315        -13.710
  -3.313        -13.707
  -3.310        -13.704
  -3.308        -13.701
  -3.306        -13.697
  -3.304        -13.694
  -3.302        -13.691
  -3.300        -13.688
  -3.297        -13.685
  -3.295        -13.681
  -3.293        -13.678
  -3.291        -13.675
  -3.289        -13.672
  -3.287        -13.669
  -3.284        -13.666
  -3.282        -13.663
  -3.280        -13.659
  -3.278        -13.656
  -3.276        -13.653
  -3.273        -13.650
  -3.271        -13.647
  -3.269        -13.644
  -3.267        -13.641
  -3.265        -13.638
  -3.263        -13.635
  -3.260        -13.632
  -3.258        -13.629
  -3.256        -13.626
  -3.254        -13.623
  -3.252        -13.619
  -3.250        -13.617
  -3.247        -13.613
  -3.245        -13.610
  -3.243        -13.607
  -3.241        -13.604
  -3.239        -13.602
  -3.237        -13.599
  -3.234        -13.596
  -3.232        -13.593
  -3.230        -13.590
  -3.228        -13.587
  -3.226        -13.584
  -3.224        -13.581
  -3.221        -13.578
  -3.219        -13.575
  -3.217        -13.572
  -3.215        -13.569
  -3.213        -13.566
  -3.211        -13.564
  -3.208        -13.561
  -3.206        -13.558
  -3.204        -13.555
  -3.202        -13.552
  -3.200        -13.549
  -3.197        -13.547
  -3.195        -13.544
  -3.193        -13.541
  -3.191        -13.538
  -3.189        -13.535
  -3.187        -13.532
  -3.184        -13.530
  -3.182        -13.527
  -3.180        -13.524
  -3.178        -13.521
  -3.176        -13.519
  -3.174        -13.516
  -3.171        -13.513
  -3.169        -13.511
  -3.167        -13.508
  -3.165        -13.505
  -3.163        -13.503
  -3.161        -13.500
  -3.158        -13.497
  -3.156        -13.495
  -3.154        -13.492
  -3.152        -13.489
  -3.150        -13.487
  -3.148        -13.484
  -3.145        -13.482
  -3.143        -13.479
  -3.141        -13.476
  -3.139        -13.474
  -3.137        -13.471
  -3.135        -13.469
  -3.132        -13.466
  -3.130        -13.464
  -3.128        -13.461
  -3.126        -13.459
  -3.124        -13.456
  -3.122        -13.454
  -3.119        -13.451
  -3.117        -13.449
  -3.115        -13.446
  -3.113        -13.444
  -3.111        -13.441
  -3.108        -13.439
  -3.106        -13.437
  -3.104        -13.434
  -3.102        -13.432
  -3.100        -13.429
  -3.098        -13.427
  -3.095        -13.425
  -3.093        -13.422
  -3.091        -13.420
  -3.089        -13.418
  -3.087        -13.416
  -3.085        -13.413
  -3.082        -13.411
  -3.080        -13.409
  -3.078        -13.406
  -3.076        -13.404
  -3.074        -13.402
  -3.072        -13.400
  -3.069        -13.397
  -3.067        -13.395
  -3.065        -13.393
  -3.063        -13.391
  -3.061        -13.389
  -3.059        -13.387
  -3.056        -13.385
  -3.054        -13.383
  -3.052        -13.381
  -3.050        -13.379
  -3.048        -13.377
  -3.046        -13.374
  -3.043        -13.372
  -3.041        -13.370
  -3.039        -13.368
  -3.037        -13.366
  -3.035        -13.364
  -3.032        -13.362
  -3.030        -13.360
  -3.028        -13.358
  -3.026        -13.357
  -3.024        -13.355
  -3.022        -13.353
  -3.019        -13.351
  -3.017        -13.349
  -3.015        -13.347
  -3.013        -13.345
  -3.011        -13.344
  -3.009        -13.342
  -3.006        -13.340
  -3.004        -13.338
  -3.002        -13.336
  -3.000        -13.335
  -2.998        -13.333
  -2.996        -13.331
  -2.993        -13.329
  -2.991        -13.328
  -2.989        -13.326
  -2.987        -13.325
  -2.985        -13.323
  -2.983        -13.321
  -2.980        -13.320
  -2.978        -13.318
  -2.976        -13.317
  -2.974        -13.315
  -2.972        -13.313
  -2.970        -13.312
  -2.967        -13.310
  -2.965        -13.309
  -2.963        -13.307
  -2.961        -13.306
  -2.959        -13.305
  -2.956        -13.303
  -2.954        -13.302
  -2.952        -13.300
  -2.950        -13.299
  -2.948        -13.298
  -2.946        -13.296
  -2.944        -13.295
  -2.941        -13.294
  -2.939        -13.293
  -2.937        -13.291
  -2.935        -13.290
  -2.933        -13.289
  -2.930        -13.288
  -2.928        -13.286
  -2.926        -13.285
  -2.924        -13.284
  -2.922        -13.283
  -2.920        -13.282
  -2.917        -13.281
  -2.915        -13.280
  -2.913        -13.279
  -2.911        -13.278
  -2.909        -13.277
  -2.907        -13.276
  -2.904        -13.275
  -2.902        -13.274
  -2.900        -13.273
  -2.898        -13.272
  -2.896        -13.271
  -2.894        -13.271
  -2.891        -13.270
  -2.889        -13.269
  -2.887        -13.268
  -2.885        -13.267
  -2.883        -13.267
  -2.880        -13.266
  -2.878        -13.265
  -2.876        -13.265
  -2.874        -13.264
  -2.872        -13.263
  -2.870        -13.263
  -2.867        -13.262
  -2.865        -13.262
  -2.863        -13.261
  -2.861        -13.260
  -2.859        -13.260
  -2.857        -13.260
  -2.855        -13.259
  -2.852        -13.259
  -2.850        -13.258
  -2.848        -13.258
  -2.846        -13.258
  -2.843        -13.258
  -2.842        -13.257
  -2.839        -13.257
  -2.837        -13.256
  -2.835        -13.256
  -2.833        -13.256
  -2.831        -13.256
  -2.828        -13.256
  -2.826        -13.256
  -2.824        -13.256
  -2.822        -13.256
  -2.820        -13.256
  -2.817        -13.256
  -2.815        -13.256
  -2.813        -13.256
  -2.811        -13.256
  -2.809        -13.256
  -2.807        -13.256
  -2.805        -13.256
  -2.802        -13.257
  -2.800        -13.257
  -2.798        -13.257
  -2.796        -13.257
  -2.794        -13.257
  -2.792        -13.258
  -2.789        -13.258
  -2.787        -13.259
  -2.785        -13.259
  -2.783        -13.259
  -2.781        -13.260
  -2.779        -13.260
  -2.776        -13.261
  -2.774        -13.261
  -2.772        -13.262
  -2.770        -13.263
  -2.767        -13.263
  -2.765        -13.264
  -2.763        -13.265
  -2.761        -13.265
  -2.759        -13.266
  -2.757        -13.267
  -2.754        -13.268
  -2.753        -13.269
  -2.750        -13.270
  -2.748        -13.271
  -2.746        -13.272
  -2.744        -13.273
  -2.741        -13.274
  -2.739        -13.275
  -2.737        -13.276
  -2.735        -13.277
  -2.733        -13.278
  -2.731        -13.279
  -2.729        -13.281
  -2.726        -13.282
  -2.724        -13.283
  -2.722        -13.285
  -2.720        -13.286
  -2.718        -13.288
  -2.716        -13.289
  -2.713        -13.290
  -2.711        -13.292
  -2.709        -13.293
  -2.707        -13.295
  -2.705        -13.297
  -2.703        -13.298
  -2.700        -13.300
  -2.698        -13.302
  -2.696        -13.303
  -2.694        -13.305
  -2.692        -13.307
  -2.689        -13.309
  -2.687        -13.311
  -2.685        -13.313
  -2.683        -13.315
  -2.681        -13.317
  -2.679        -13.319
  -2.677        -13.321
  -2.674        -13.324
  -2.672        -13.326
  -2.670        -13.328
  -2.668        -13.330
  -2.666        -13.333
  -2.663        -13.335
  -2.661        -13.337
  -2.659        -13.340
  -2.657        -13.342
  -2.655        -13.345
  -2.653        -13.348
  -2.650        -13.350
  -2.648        -13.353
  -2.646        -13.356
  -2.644        -13.358
  -2.642        -13.361
  -2.640        -13.364
  -2.637        -13.367
  -2.635        -13.370
  -2.633        -13.373
  -2.631        -13.376
  -2.629        -13.379
  -2.626        -13.382
  -2.624        -13.385
  -2.622        -13.388
  -2.620        -13.391
  -2.618        -13.395
  -2.616        -13.398
  -2.614        -13.402
  -2.611        -13.405
  -2.609        -13.408
  -2.607        -13.412
  -2.605        -13.416
  -2.603        -13.419
  -2.600        -13.423
  -2.598        -13.427
  -2.596        -13.430
  -2.594        -13.434
  -2.592        -13.438
  -2.590        -13.442
  -2.587        -13.446
  -2.585        -13.450
  -2.583        -13.454
  -2.581        -13.458
  -2.579        -13.462
  -2.577        -13.467
  -2.574        -13.471
  -2.572        -13.475
  -2.570        -13.480
  -2.568        -13.484
  -2.566        -13.489
  -2.564        -13.493
  -2.561        -13.498
  -2.559        -13.502
  -2.557        -13.507
  -2.555        -13.512
  -2.553        -13.517
  -2.551        -13.521
  -2.548        -13.526
  -2.546        -13.531
  -2.544        -13.536
  -2.542        -13.541
  -2.540        -13.547
  -2.538        -13.552
  -2.535        -13.557
  -2.533        -13.563
  -2.531        -13.568
  -2.529        -13.573
  -2.527        -13.579
  -2.525        -13.584
  -2.522        -13.590
  -2.520        -13.595
  -2.518        -13.601
  -2.516        -13.607
  -2.514        -13.613
  -2.511        -13.619
  -2.509        -13.625
  -2.507        -13.631
  -2.505        -13.637
  -2.503        -13.643
  -2.501        -13.649
  -2.498        -13.656
  -2.496        -13.662
  -2.494        -13.668
  -2.492        -13.675
  -2.490        -13.681
  -2.488        -13.688
  -2.485        -13.695
  -2.483        -13.701
  -2.481        -13.708
  -2.479        -13.715
  -2.477        -13.722
  -2.475        -13.729
  -2.472        -13.736
  -2.470        -13.743
  -2.468        -13.750
  -2.466        -13.758
  -2.464        -13.765
  -2.462        -13.772
  -2.459        -13.780
  -2.457        -13.788
  -2.455        -13.795
  -2.453        -13.803
  -2.451        -13.811
  -2.448        -13.818
  -2.446        -13.826
  -2.444        -13.834
  -2.442        -13.842
  -2.440        -13.850
  -2.438        -13.859
  -2.435        -13.867
  -2.433        -13.875
  -2.431        -13.884
  -2.429        -13.892
  -2.427        -13.901
  -2.425        -13.909
  -2.422        -13.918
  -2.420        -13.927
  -2.418        -13.935
  -2.416        -13.945
  -2.414        -13.954
  -2.412        -13.963
  -2.409        -13.972
  -2.407        -13.981
  -2.405        -13.991
  -2.403        -14.000
  -2.401        -14.009
  -2.398        -14.019
  -2.396        -14.029
  -2.394        -14.038
  -2.392        -14.048
  -2.390        -14.058
  -2.388        -14.068
  -2.386        -14.078
  -2.383        -14.088
  -2.381        -14.098
  -2.379        -14.109
  -2.377        -14.119
  -2.375        -14.129
  -2.372        -14.140
  -2.370        -14.151
  -2.368        -14.161
  -2.366        -14.172
  -2.364        -14.183
  -2.362        -14.194
  -2.359        -14.205
  -2.357        -14.216
  -2.355        -14.227
  -2.353        -14.239
  -2.351        -14.250
  -2.349        -14.262
  -2.346        -14.273
  -2.344        -14.285
  -2.342        -14.297
  -2.340        -14.309
  -2.338        -14.321
  -2.336        -14.333
  -2.333        -14.345
  -2.331        -14.357
  -2.329        -14.369
  -2.327        -14.382
  -2.325        -14.394
  -2.323        -14.407
  -2.320        -14.420
  -2.318        -14.433
  -2.316        -14.445
  -2.314        -14.458
  -2.312        -14.472
  -2.309        -14.485
  -2.307        -14.498
  -2.305        -14.512
  -2.303        -14.525
  -2.301        -14.539
  -2.299        -14.552
  -2.297        -14.566
  -2.294        -14.580
  -2.292        -14.594
  -2.290        -14.608
  -2.288        -14.622
  -2.286        -14.637
  -2.283        -14.651
  -2.281        -14.666
  -2.279        -14.680
  -2.277        -14.695
  -2.275        -14.710
  -2.273        -14.725
  -2.270        -14.740
  -2.268        -14.755
  -2.266        -14.770
  -2.264        -14.786
  -2.262        -14.801
  -2.260        -14.817
  -2.257        -14.833
  -2.255        -14.848
  -2.253        -14.864
  -2.251        -14.880
  -2.249        -14.897
  -2.247        -14.913
  -2.244        -14.929
  -2.242        -14.946
  -2.240        -14.962
  -2.238        -14.979
  -2.236        -14.996
  -2.234        -15.013
  -2.231        -15.030
  -2.229        -15.047
  -2.227        -15.064
  -2.225        -15.082
  -2.223        -15.099
  -2.220        -15.117
  -2.218        -15.135
  -2.216        -15.153
  -2.214        -15.171
  -2.212        -15.189
  -2.210        -15.207
  -2.207        -15.226
  -2.205        -15.245
  -2.203        -15.263
  -2.201        -15.282
  -2.199        -15.301
  -2.197        -15.320
  -2.194        -15.339
  -2.192        -15.358
  -2.190        -15.378
  -2.188        -15.398
  -2.186        -15.417
  -2.184        -15.437
  -2.181        -15.457
  -2.179        -15.477
  -2.177        -15.497
  -2.175        -15.518
  -2.173        -15.538
  -2.171        -15.559
  -2.168        -15.580
  -2.166        -15.601
  -2.164        -15.622
  -2.162        -15.643
  -2.160        -15.664
  -2.158        -15.686
  -2.155        -15.707
  -2.153        -15.729
  -2.151        -15.751
  -2.149        -15.773
  -2.147        -15.795
  -2.145        -15.817
  -2.142        -15.840
  -2.140        -15.862
  -2.138        -15.885
  -2.136        -15.908
  -2.134        -15.931
  -2.131        -15.954
  -2.129        -15.977
  -2.127        -16.001
  -2.125        -16.024
  -2.123        -16.048
  -2.121        -16.072
  -2.118        -16.096
  -2.116        -16.120
  -2.114        -16.145
  -2.112        -16.169
  -2.110        -16.194
  -2.108        -16.219
  -2.105        -16.244
  -2.103        -16.269
  -2.101        -16.294
  -2.099        -16.320
  -2.097        -16.345
  -2.095        -16.371
  -2.092        -16.397
  -2.090        -16.423
  -2.088        -16.449
  -2.086        -16.476
  -2.084        -16.502
  -2.082        -16.529
  -2.079        -16.556
  -2.077        -16.583
  -2.075        -16.610
  -2.073        -16.637
  -2.071        -16.665
  -2.069        -16.692
  -2.066        -16.720
  -2.064        -16.748
  -2.062        -16.776
  -2.060        -16.805
  -2.058        -16.833
  -2.056        -16.862
  -2.053        -16.890
  -2.051        -16.919
  -2.049        -16.948
  -2.047        -16.977
  -2.045        -17.007
  -2.043        -17.036
  -2.040        -17.066
  -2.038        -17.095
  -2.036        -17.125
  -2.034        -17.155
  -2.032        -17.186
  -2.029        -17.216
  -2.027        -17.246
  -2.025        -17.277
  -2.023        -17.307
  -2.021        -17.338
  -2.019        -17.369
  -2.016        -17.400
  -2.014        -17.430
  -2.012        -17.461
  -2.010        -17.492
  -2.008        -17.523
  -2.006        -17.554
  -2.003        -17.585
  -2.001        -17.617
  -1.999        -17.648
  -1.997        -17.679
  -1.995        -17.709
  -1.993        -17.740
  -1.990        -17.771
  -1.988        -17.802
  -1.986        -17.833
  -1.984        -17.864
  -1.982        -17.895
  -1.980        -17.925
  -1.977        -17.956
  -1.975        -17.986
  -1.973        -18.016
  -1.971        -18.046
  -1.969        -18.076
  -1.967        -18.105
  -1.964        -18.134
  -1.962        -18.162
  -1.960        -18.190
  -1.958        -18.218
  -1.956        -18.245
  -1.953        -18.272
  -1.951        -18.298
  -1.949        -18.323
  -1.947        -18.348
  -1.945        -18.373
  -1.943        -18.396
  -1.940        -18.419
  -1.938        -18.441
  -1.936        -18.462
  -1.934        -18.483
  -1.932        -18.503
  -1.930        -18.522
  -1.927        -18.540
  -1.925        -18.557
  -1.923        -18.574
  -1.921        -18.590
  -1.919        -18.605
  -1.917        -18.619
  -1.914        -18.632
  -1.912        -18.645
  -1.910        -18.657
  -1.908        -18.668
  -1.906        -18.679
  -1.904        -18.689
  -1.901        -18.698
  -1.899        -18.707
  -1.897        -18.715
  -1.895        -18.722
  -1.893        -18.729
  -1.891        -18.736
  -1.888        -18.742
  -1.886        -18.747
  -1.884        -18.753
  -1.882        -18.758
  -1.880        -18.762
  -1.877        -18.766
  -1.875        -18.770
  -1.873        -18.774
  -1.871        -18.777
  -1.869        -18.780
  -1.867        -18.783
  -1.864        -18.786
  -1.862        -18.788
  -1.860        -18.791
  -1.858        -18.793
  -1.856        -18.795
  -1.853        -18.797
  -1.851        -18.799
  -1.849        -18.801
  -1.847        -18.802
  -1.845        -18.804
  -1.843        -18.806
  -1.841        -18.807
  -1.838        -18.808
  -1.836        -18.810
  -1.834        -18.811
  -1.832        -18.812
  -1.830        -18.813
  -1.828        -18.814
  -1.825        -18.816
  -1.823        -18.817
  -1.821        -18.818
  -1.819        -18.819
  -1.817        -18.820
  -1.815        -18.821
  -1.812        -18.822
  -1.810        -18.823
  -1.808        -18.824
  -1.806        -18.825
  -1.804        -18.826
  -1.801        -18.827
  -1.799        -18.828
  -1.797        -18.829
  -1.795        -18.829
  -1.793        -18.830
  -1.791        -18.831
  -1.788        -18.832
  -1.786        -18.833
  -1.784        -18.834
  -1.782        -18.835
  -1.780        -18.836
  -1.777        -18.837
  -1.775        -18.837
  -1.773        -18.839
  -1.771        -18.839
  -1.769        -18.840
  -1.767        -18.841
  -1.764        -18.842
  -1.763        -18.843
  -1.760        -18.844
  -1.758        -18.845
  -1.756        -18.845
  -1.754        -18.846
  -1.752        -18.847
  -1.749        -18.848
  -1.747        -18.849
  -1.745        -18.850
  -1.743        -18.851
  -1.741        -18.851
  -1.739        -18.852
  -1.736        -18.853
  -1.734        -18.854
  -1.732        -18.855
  -1.730        -18.856
  -1.728        -18.857
  -1.726        -18.857
  -1.723        -18.858
  -1.721        -18.859
  -1.719        -18.860
  -1.717        -18.861
  -1.715        -18.862
  -1.713        -18.862
  -1.710        -18.863
  -1.708        -18.864
  -1.706        -18.865
  -1.704        -18.866
  -1.702        -18.867
  -1.699        -18.868
  -1.697        -18.868
  -1.695        -18.869
  -1.693        -18.870
  -1.691        -18.871
  -1.689        -18.872
  -1.686        -18.873
  -1.684        -18.874
  -1.682        -18.874
  -1.680        -18.875
  -1.678        -18.876
  -1.675        -18.877
  -1.673        -18.878
  -1.671        -18.879
  -1.669        -18.880
  -1.667        -18.880
  -1.665        -18.881
  -1.663        -18.882
  -1.660        -18.883
  -1.658        -18.884
  -1.656        -18.885
  -1.654        -18.886
  -1.652        -18.886
  -1.650        -18.887
  -1.647        -18.888
  -1.645        -18.889
  -1.643        -18.890
  -1.641        -18.891
  -1.639        -18.892
  -1.637        -18.892
  -1.634        -18.893
  -1.632        -18.894
  -1.630        -18.895
  -1.628        -18.896
  -1.626        -18.897
  -1.623        -18.898
  -1.621        -18.898
  -1.619        -18.899
  -1.617        -18.900
  -1.615        -18.901
  -1.613        -18.902
  -1.611        -18.903
  -1.608        -18.904
  -1.606        -18.904
  -1.604        -18.905
  -1.602        -18.906
  -1.600        -18.907
  -1.597        -18.908
  -1.595        -18.908
  -1.593        -18.909
  -1.591        -18.910
  -1.589        -18.911
  -1.587        -18.912
  -1.584        -18.913
  -1.582        -18.914
  -1.580        -18.914
  -1.578        -18.915
  -1.576        -18.916
  -1.573        -18.917
  -1.571        -18.918
  -1.569        -18.919
  -1.567        -18.920
  -1.565        -18.920
  -1.563        -18.921
  -1.561        -18.922
  -1.558        -18.923
  -1.556        -18.924
  -1.554        -18.925
  -1.552        -18.926
  -1.550        -18.926
  -1.547        -18.927
  -1.545        -18.928
  -1.543        -18.929
  -1.541        -18.930
  -1.539        -18.931
  -1.537        -18.932
  -1.534        -18.932
  -1.532        -18.933
  -1.530        -18.934
  -1.528        -18.935
  -1.526        -18.936
  -1.524        -18.937
  -1.522        -18.937
  -1.519        -18.938
  -1.517        -18.939
  -1.515        -18.940
  -1.513        -18.941
  -1.511        -18.941
  -1.508        -18.942
  -1.506        -18.943
  -1.504        -18.944
  -1.502        -18.945
  -1.500        -18.946
  -1.498        -18.947
  -1.495        -18.948
  -1.493        -18.948
  -1.491        -18.949
  -1.489        -18.950
  -1.487        -18.951
  -1.484        -18.952
  -1.482        -18.953
  -1.480        -18.954
  -1.478        -18.955
  -1.476        -18.955
  -1.474        -18.956
  -1.472        -18.957
  -1.469        -18.958
  -1.467        -18.959
  -1.465        -18.960
  -1.463        -18.961
  -1.461        -18.961
  -1.458        -18.962
  -1.456        -18.963
  -1.454        -18.964
  -1.452        -18.965
  -1.450        -18.965
  -1.448        -18.966
  -1.445        -18.967
  -1.443        -18.968
  -1.441        -18.969
  -1.439        -18.970
  -1.437        -18.971
  -1.435        -18.971
  -1.432        -18.972
  -1.430        -18.973
  -1.428        -18.974
  -1.426        -18.975
  -1.424        -18.976
  -1.422        -18.977
  -1.419        -18.977
  -1.417        -18.978
  -1.415        -18.979
  -1.413        -18.980
  -1.411        -18.981
  -1.409        -18.982
  -1.406        -18.983
  -1.404        -18.983
  -1.402        -18.984
  -1.400        -18.985
  -1.398        -18.986
  -1.396        -18.987
  -1.393        -18.988
  -1.391        -18.989
  -1.389        -18.990
  -1.387        -18.990
  -1.385        -18.991
  -1.383        -18.992
  -1.380        -18.993
  -1.378        -18.994
  -1.376        -18.995
  -1.374        -18.996
  -1.372        -18.996
  -1.370        -18.997
  -1.367        -18.998
  -1.365        -18.999
  -1.363        -19.000
  -1.361        -19.001
  -1.359        -19.002
  -1.356        -19.002
  -1.354        -19.003
  -1.352        -19.004
  -1.350        -19.005
  -1.348        -19.006
  -1.346        -19.007
  -1.343        -19.008
  -1.341        -19.009
  -1.339        -19.010
  -1.337        -19.011
  -1.335        -19.012
  -1.333        -19.012
  -1.330        -19.013
  -1.328        -19.014
  -1.326        -19.015
  -1.324        -19.016
  -1.322        -19.017
  -1.320        -19.018
  -1.317        -19.019
  -1.315        -19.020
  -1.313        -19.020
  -1.311        -19.021
  -1.309        -19.022
  -1.307        -19.023
  -1.304        -19.024
  -1.302        -19.025
  -1.300        -19.026
  -1.298        -19.027
  -1.296        -19.028
  -1.293        -19.029
  -1.291        -19.030
  -1.289        -19.031
  -1.287        -19.032
  -1.285        -19.033
  -1.283        -19.034
  -1.280        -19.035
  -1.278        -19.036
  -1.276        -19.037
  -1.274        -19.038
  -1.272        -19.038
  -1.270        -19.039
  -1.267        -19.040
  -1.265        -19.041
  -1.263        -19.042
  -1.261        -19.043
  -1.259        -19.044
  -1.257        -19.045
  -1.254        -19.046
  -1.252        -19.047
  -1.250        -19.048
  -1.248        -19.049
  -1.246        -19.050
  -1.243        -19.051
  -1.241        -19.052
  -1.239        -19.053
  -1.237        -19.054
  -1.235        -19.056
  -1.233        -19.057
  -1.231        -19.058
  -1.228        -19.059
  -1.226        -19.060
  -1.224        -19.061
  -1.222        -19.062
  -1.220        -19.063
  -1.217        -19.064
  -1.215        -19.065
  -1.213        -19.066
  -1.211        -19.067
  -1.209        -19.068
  -1.207        -19.069
  -1.204        -19.071
  -1.202        -19.072
  -1.200        -19.073
  -1.198        -19.074
  -1.196        -19.075
  -1.194        -19.076
  -1.191        -19.077
  -1.189        -19.079
  -1.187        -19.080
  -1.185        -19.081
  -1.183        -19.082
  -1.181        -19.084
  -1.178        -19.085
  -1.176        -19.086
  -1.174        -19.087
  -1.172        -19.088
  -1.170        -19.090
  -1.168        -19.091
  -1.165        -19.092
  -1.163        -19.093
  -1.161        -19.095
  -1.159        -19.096
  -1.157        -19.097
  -1.155        -19.098
  -1.152        -19.100
  -1.150        -19.101
  -1.148        -19.103
  -1.146        -19.104
  -1.144        -19.105
  -1.142        -19.107
  -1.139        -19.108
  -1.137        -19.109
  -1.135        -19.111
  -1.133        -19.112
  -1.131        -19.114
  -1.129        -19.115
  -1.126        -19.117
  -1.124        -19.118
  -1.122        -19.119
  -1.120        -19.121
  -1.118        -19.122
  -1.115        -19.124
  -1.113        -19.125
  -1.111        -19.127
  -1.109        -19.128
  -1.107        -19.130
  -1.105        -19.132
  -1.102        -19.133
  -1.100        -19.135
  -1.098        -19.136
  -1.096        -19.138
  -1.094        -19.139
  -1.092        -19.141
  -1.089        -19.143
  -1.087        -19.145
  -1.085        -19.146
  -1.083        -19.148
  -1.081        -19.150
  -1.079        -19.152
  -1.076        -19.153
  -1.074        -19.155
  -1.072        -19.157
  -1.070        -19.158
  -1.068        -19.160
  -1.066        -19.162
  -1.063        -19.164
  -1.061        -19.166
  -1.059        -19.168
  -1.057        -19.169
  -1.055        -19.171
  -1.052        -19.173
  -1.050        -19.175
  -1.048        -19.177
  -1.046        -19.179
  -1.044        -19.181
  -1.042        -19.183
  -1.039        -19.185
  -1.037        -19.187
  -1.035        -19.189
  -1.033        -19.191
  -1.031        -19.193
  -1.029        -19.195
  -1.026        -19.197
  -1.024        -19.199
  -1.022        -19.201
  -1.020        -19.203
  -1.018        -19.205
  -1.016        -19.207
  -1.013        -19.209
  -1.011        -19.212
  -1.009        -19.214
  -1.007        -19.216
  -1.005        -19.218
  -1.003        -19.220
  -1.000        -19.222
  -0.998        -19.224
  -0.996        -19.226
  -0.994        -19.229
  -0.992        -19.231
  -0.990        -19.233
  -0.987        -19.235
  -0.985        -19.237
  -0.983        -19.239
  -0.981        -19.241
  -0.979        -19.243
  -0.977        -19.245
  -0.974        -19.247
  -0.972        -19.249
  -0.970        -19.251
  -0.968        -19.253
  -0.966        -19.255
  -0.963        -19.257
  -0.961        -19.259
  -0.959        -19.261
  -0.957        -19.263
  -0.955        -19.265
  -0.953        -19.267
  -0.950        -19.269
  -0.948        -19.271
  -0.946        -19.273
  -0.944        -19.275
  -0.942        -19.277
  -0.940        -19.279
  -0.937        -19.280
  -0.935        -19.282
  -0.933        -19.284
  -0.931        -19.286
  -0.929        -19.288
  -0.927        -19.290
  -0.924        -19.291
  -0.922        -19.293
  -0.920        -19.295
  -0.918        -19.296
  -0.916        -19.298
  -0.914        -19.300
  -0.911        -19.301
  -0.909        -19.303
  -0.907        -19.305
  -0.905        -19.306
  -0.903        -19.308
  -0.900        -19.309
  -0.898        -19.311
  -0.896        -19.313
  -0.894        -19.314
  -0.892        -19.316
  -0.890        -19.317
  -0.887        -19.319
  -0.885        -19.320
  -0.883        -19.322
  -0.881        -19.323
  -0.879        -19.324
  -0.877        -19.326
  -0.874        -19.327
  -0.872        -19.329
  -0.870        -19.330
  -0.868        -19.332
  -0.866        -19.333
  -0.864        -19.334
  -0.862        -19.335
  -0.859        -19.337
  -0.857        -19.338
  -0.855        -19.339
  -0.853        -19.340
  -0.851        -19.342
  -0.848        -19.343
  -0.846        -19.344
  -0.844        -19.345
  -0.842        -19.347
  -0.840        -19.348
  -0.838        -19.349
  -0.835        -19.350
  -0.833        -19.351
  -0.831        -19.352
  -0.829        -19.353
  -0.827        -19.354
  -0.825        -19.355
  -0.822        -19.356
  -0.820        -19.357
  -0.818        -19.358
  -0.816        -19.359
  -0.814        -19.359
  -0.812        -19.360
  -0.809        -19.361
  -0.807        -19.362
  -0.805        -19.363
  -0.803        -19.364
  -0.801        -19.365
  -0.799        -19.365
  -0.796        -19.366
  -0.794        -19.367
  -0.792        -19.368
  -0.790        -19.368
  -0.788        -19.369
  -0.785        -19.370
  -0.783        -19.371
  -0.781        -19.371
  -0.779        -19.372
  -0.777        -19.372
  -0.774        -19.373
  -0.772        -19.374
  -0.770        -19.374
  -0.768        -19.374
  -0.766        -19.375
  -0.764        -19.376
  -0.762        -19.376
  -0.759        -19.377
  -0.757        -19.377
  -0.755        -19.378
  -0.753        -19.378
  -0.751        -19.379
  -0.748        -19.379
  -0.746        -19.379
  -0.744        -19.379
  -0.742        -19.380
  -0.740        -19.380
  -0.738        -19.381
  -0.736        -19.381
  -0.733        -19.381
  -0.731        -19.382
  -0.729        -19.382
  -0.727        -19.382
  -0.725        -19.382
  -0.723        -19.382
  -0.720        -19.383
  -0.718        -19.383
  -0.716        -19.383
  -0.714        -19.383
  -0.712        -19.383
  -0.709        -19.384
  -0.707        -19.383
  -0.705        -19.384
  -0.703        -19.384
  -0.701        -19.384
  -0.699        -19.384
  -0.697        -19.384
  -0.694        -19.384
  -0.692        -19.384
  -0.690        -19.384
  -0.688        -19.384
  -0.685        -19.384
  -0.683        -19.384
  -0.681        -19.384
  -0.679        -19.384
  -0.677        -19.384
  -0.675        -19.384
  -0.673        -19.383
  -0.670        -19.383
  -0.668        -19.383
  -0.666        -19.383
  -0.664        -19.383
  -0.662        -19.382
  -0.659        -19.382
  -0.657        -19.382
  -0.655        -19.382
  -0.653        -19.382
  -0.651        -19.381
  -0.649        -19.381
  -0.647        -19.381
  -0.644        -19.380
  -0.642        -19.380
  -0.640        -19.380
  -0.638        -19.379
  -0.636        -19.379
  -0.633        -19.379
  -0.631        -19.378
  -0.629        -19.378
  -0.627        -19.377
  -0.625        -19.377
  -0.623        -19.376
  -0.621        -19.376
  -0.618        -19.375
  -0.616        -19.375
  -0.614        -19.374
  -0.612        -19.374
  -0.610        -19.373
  -0.608        -19.372
  -0.605        -19.372
  -0.603        -19.371
  -0.601        -19.371
  -0.599        -19.370
  -0.596        -19.370
  -0.594        -19.369
  -0.592        -19.368
  -0.590        -19.368
  -0.588        -19.367
  -0.586        -19.366
  -0.584        -19.365
  -0.581        -19.365
  -0.579        -19.364
  -0.577        -19.363
  -0.575        -19.363
  -0.573        -19.362
  -0.571        -19.361
  -0.568        -19.360
  -0.566        -19.360
  -0.564        -19.359
  -0.562        -19.358
  -0.560        -19.357
  -0.557        -19.357
  -0.555        -19.356
  -0.553        -19.355
  -0.551        -19.355
  -0.549        -19.354
  -0.547        -19.353
  -0.544        -19.352
  -0.542        -19.352
  -0.540        -19.351
  -0.538        -19.350
  -0.536        -19.349
  -0.534        -19.349
  -0.531        -19.348
  -0.529        -19.347
  -0.527        -19.346
  -0.525        -19.346
  -0.523        -19.345
  -0.521        -19.344
  -0.518        -19.343
  -0.516        -19.342
  -0.514        -19.342
  -0.512        -19.341
  -0.510        -19.340
  -0.507        -19.339
  -0.505        -19.338
  -0.503        -19.338
  -0.501        -19.337
  -0.499        -19.336
  -0.497        -19.335
  -0.495        -19.334
  -0.492        -19.333
  -0.490        -19.333
  -0.488        -19.332
  -0.486        -19.331
  -0.484        -19.330
  -0.482        -19.329
  -0.479        -19.328
  -0.477        -19.327
  -0.475        -19.327
  -0.473        -19.326
  -0.471        -19.325
  -0.468        -19.324
  -0.466        -19.323
  -0.464        -19.322
  -0.462        -19.321
  -0.460        -19.320
  -0.458        -19.320
  -0.455        -19.319
  -0.453        -19.318
  -0.451        -19.317
  -0.449        -19.316
  -0.447        -19.315
  -0.445        -19.314
  -0.442        -19.313
  -0.440        -19.312
  -0.438        -19.312
  -0.436        -19.311
  -0.434        -19.310
  -0.432        -19.309
  -0.429        -19.308
  -0.427        -19.307
  -0.425        -19.306
  -0.423        -19.305
  -0.421        -19.304
  -0.419        -19.303
  -0.416        -19.302
  -0.414        -19.302
  -0.412        -19.301
  -0.410        -19.300
  -0.408        -19.299
  -0.405        -19.298
  -0.403        -19.297
  -0.401        -19.296
  -0.399        -19.295
  -0.397        -19.294
  -0.395        -19.293
  -0.392        -19.292
  -0.390        -19.291
  -0.388        -19.290
  -0.386        -19.289
  -0.384        -19.289
  -0.382        -19.288
  -0.379        -19.287
  -0.377        -19.286
  -0.375        -19.285
  -0.373        -19.284
  -0.371        -19.283
  -0.369        -19.282
  -0.366        -19.281
  -0.364        -19.280
  -0.362        -19.279
  -0.360        -19.278
  -0.358        -19.277
  -0.356        -19.276
  -0.353        -19.275
  -0.351        -19.274
  -0.349        -19.273
  -0.347        -19.272
  -0.345        -19.271
  -0.343        -19.270
  -0.340        -19.269
  -0.338        -19.268
  -0.336        -19.267
  -0.334        -19.266
  -0.332        -19.265
  -0.330        -19.264
  -0.327        -19.263
  -0.325        -19.262
  -0.323        -19.261
  -0.321        -19.260
  -0.319        -19.259
  -0.316        -19.258
  -0.314        -19.257
  -0.312        -19.256
  -0.310        -19.255
  -0.308        -19.254
  -0.306        -19.253
  -0.303        -19.252
  -0.301        -19.251
  -0.299        -19.251
  -0.297        -19.250
  -0.295        -19.249
  -0.293        -19.248
  -0.290        -19.248
  -0.288        -19.247
  -0.286        -19.246
  -0.284        -19.246
  -0.282        -19.245
  -0.280        -19.244
  -0.277        -19.244
  -0.275        -19.243
  -0.273        -19.243
  -0.271        -19.242
  -0.269        -19.242
  -0.267        -19.242
  -0.264        -19.241
  -0.262        -19.241
  -0.260        -19.240
  -0.258        -19.240
  -0.256        -19.239
  -0.253        -19.239
  -0.251        -19.238
  -0.249        -19.238
  -0.247        -19.238
  -0.245        -19.237
  -0.243        -19.237
  -0.241        -19.237
  -0.238        -19.236
  -0.236        -19.236
  -0.234        -19.235
  -0.232        -19.235
  -0.230        -19.235
  -0.227        -19.235
  -0.225        -19.235
  -0.223        -19.234
  -0.221        -19.234
  -0.219        -19.234
  -0.217        -19.233
  -0.214        -19.233
  -0.212        -19.233
  -0.210        -19.233
  -0.208        -19.233
  -0.206        -19.232
  -0.204        -19.232
  -0.201        -19.232
  -0.199        -19.232
  -0.197        -19.232
  -0.195        -19.232
  -0.193        -19.232
  -0.191        -19.232
  -0.188        -19.232
  -0.186        -19.232
  -0.184        -19.232
  -0.182        -19.232
  -0.180        -19.232
  -0.178        -19.232
  -0.175        -19.232
  -0.173        -19.232
  -0.171        -19.232
  -0.169        -19.232
  -0.167        -19.233
  -0.164        -19.233
  -0.162        -19.233
  -0.160        -19.233
  -0.158        -19.233
  -0.156        -19.234
  -0.154        -19.234
  -0.151        -19.235
  -0.149        -19.235
  -0.147        -19.235
  -0.145        -19.236
  -0.143        -19.236
  -0.141        -19.236
  -0.138        -19.237
  -0.136        -19.237
  -0.134        -19.238
  -0.132        -19.238
  -0.130        -19.239
  -0.128        -19.239
  -0.125        -19.240
  -0.123        -19.240
  -0.121        -19.241
  -0.119        -19.241
  -0.117        -19.242
  -0.115        -19.242
  -0.112        -19.243
  -0.110        -19.243
  -0.108        -19.244
  -0.106        -19.244
  -0.104        -19.244
  -0.102        -19.245
  -0.099        -19.245
  -0.097        -19.246
  -0.095        -19.246
  -0.093        -19.246
  -0.091        -19.247
  -0.089        -19.247
  -0.086        -19.247
  -0.084        -19.248
  -0.082        -19.248
  -0.080        -19.248
  -0.078        -19.249
  -0.075        -19.249
  -0.073        -19.249
  -0.071        -19.250
  -0.069        -19.250
  -0.067        -19.250
  -0.065        -19.250
  -0.063        -19.251
  -0.060        -19.251
  -0.058        -19.251
  -0.056        -19.252
  -0.054        -19.252
  -0.052        -19.252
  -0.049        -19.253
  -0.047        -19.253
  -0.045        -19.253
  -0.043        -19.254
  -0.041        -19.254
  -0.039        -19.254
  -0.036        -19.255
  -0.034        -19.255
  -0.032        -19.255
  -0.030        -19.256
  -0.028        -19.256
  -0.026        -19.256
  -0.023        -19.257
  -0.021        -19.257
  -0.019        -19.258
  -0.017        -19.258
  -0.015        -19.258
  -0.013        -19.259
  -0.010        -19.259
  -0.008        -19.259
  -0.006        -19.260
  -0.004        -19.260
  -0.002        -19.260
   0.000        -19.261
   0.003        -19.261
   0.005        -19.261
   0.007        -19.262
   0.009        -19.262
   0.011        -19.263
   0.013        -19.263
   0.016        -19.263
   0.018        -19.264
   0.020        -19.264
   0.022        -19.264
   0.024        -19.265
   0.027        -19.265
   0.029        -19.266
   0.031        -19.266
   0.033        -19.266
   0.035        -19.267
   0.037        -19.267
   0.040        -19.267
   0.042        -19.268
   0.044        -19.268
   0.046        -19.269
   0.048        -19.269
   0.050        -19.269
   0.053        -19.270
   0.055        -19.270
   0.057        -19.271
   0.059        -19.271
   0.061        -19.272
   0.063        -19.272
   0.066        -19.273
   0.068        -19.273
   0.070        -19.273
   0.072        -19.274
   0.074        -19.274
   0.076        -19.274
   0.079        -19.275
   0.081        -19.275
   0.083        -19.275
   0.085        -19.276
   0.087        -19.276
   0.089        -19.276
   0.092        -19.277
   0.094        -19.277
   0.096        -19.277
   0.098        -19.278
   0.100        -19.278
   0.103        -19.278
   0.105        -19.279
   0.107        -19.279
   0.109        -19.279
   0.111        -19.280
   0.113        -19.280
   0.116        -19.281
   0.118        -19.281
   0.120        -19.281
   0.122        -19.282
   0.124        -19.282
   0.126        -19.282
   0.128        -19.283
   0.131        -19.283
   0.133        -19.284
   0.135        -19.284
   0.137        -19.285
   0.139        -19.285
   0.142        -19.285
   0.144        -19.286
   0.146        -19.286
   0.148        -19.286
   0.150        -19.286
   0.153        -19.287
   0.155        -19.287
   0.157        -19.288
   0.159        -19.288
   0.161        -19.288
   0.163        -19.288
   0.165        -19.289
   0.168        -19.289
   0.170        -19.290
   0.172        -19.290
   0.174        -19.291
   0.176        -19.291
   0.178        -19.291
   0.181        -19.291
   0.183        -19.292
   0.185        -19.292
   0.187        -19.293
   0.189        -19.293
   0.192        -19.294
   0.194        -19.294
   0.196        -19.294
   0.198        -19.295
   0.200        -19.295
   0.202        -19.295
   0.205        -19.296
   0.207        -19.296
   0.209        -19.296
   0.211        -19.297
   0.213        -19.297
   0.215        -19.298
   0.218        -19.298
   0.220        -19.299
   0.222        -19.299
   0.224        -19.300
   0.226        -19.300
   0.229        -19.301
   0.231        -19.301
   0.233        -19.301
   0.235        -19.302
   0.237        -19.302
   0.239        -19.303
   0.241        -19.303
   0.244        -19.304
   0.246        -19.304
   0.248        -19.305
   0.250        -19.305
   0.252        -19.306
   0.254        -19.306
   0.257        -19.307
   0.259        -19.308
   0.261        -19.308
   0.263        -19.309
   0.265        -19.309
   0.267        -19.310
   0.270        -19.310
   0.272        -19.311
   0.274        -19.311
   0.276        -19.312
   0.278        -19.313
   0.281        -19.313
   0.283        -19.314
   0.285        -19.314
   0.287        -19.315
   0.289        -19.316
   0.291        -19.317
   0.293        -19.317
   0.296        -19.318
   0.298        -19.318
   0.300        -19.319
   0.302        -19.320
   0.305        -19.321
   0.307        -19.321
   0.309        -19.322
   0.311        -19.323
   0.313        -19.323
   0.315        -19.324
   0.318        -19.325
   0.320        -19.326
   0.322        -19.326
   0.324        -19.327
   0.326        -19.328
   0.328        -19.329
   0.330        -19.330
   0.333        -19.331
   0.335        -19.331
   0.337        -19.332
   0.339        -19.333
   0.341        -19.334
   0.344        -19.335
   0.346        -19.336
   0.348        -19.337
   0.350        -19.338
   0.352        -19.339
   0.354        -19.340
   0.356        -19.341
   0.359        -19.342
   0.361        -19.343
   0.363        -19.344
   0.365        -19.345
   0.367        -19.345
   0.369        -19.346
   0.372        -19.347
   0.374        -19.348
   0.376        -19.349
   0.378        -19.350
   0.380        -19.351
   0.383        -19.352
   0.385        -19.353
   0.387        -19.354
   0.389        -19.355
   0.391        -19.356
   0.393        -19.357
   0.396        -19.358
   0.398        -19.359
   0.400        -19.360
   0.402        -19.362
   0.404        -19.362
   0.406        -19.364
   0.409        -19.365
   0.411        -19.366
   0.413        -19.368
   0.415        -19.369
   0.417        -19.370
   0.420        -19.371
   0.422        -19.373
   0.424        -19.374
   0.426        -19.375
   0.428        -19.377
   0.430        -19.378
   0.432        -19.380
   0.435        -19.381
   0.437        -19.383
   0.439        -19.384
   0.441        -19.386
   0.443        -19.387
   0.446        -19.389
   0.448        -19.390
   0.450        -19.392
   0.452        -19.394
   0.454        -19.396
   0.456        -19.398
   0.459        -19.400
   0.461        -19.402
   0.463        -19.404
   0.465        -19.406
   0.467        -19.407
   0.469        -19.409
   0.472        -19.412
   0.474        -19.413
   0.476        -19.415
   0.478        -19.417
   0.480        -19.419
   0.482        -19.421
   0.485        -19.423
   0.487        -19.425
   0.489        -19.427
   0.491        -19.428
   0.493        -19.429
   0.495        -19.430
   0.498        -19.431
   0.500        -19.432
   0.502        -19.433
   0.504        -19.433
   0.506        -19.434
   0.510        -19.436
   0.512        -19.436
   0.513        -19.436
   0.515        -19.436
   0.517        -19.437
   0.519        -19.437
   0.522        -19.437
   0.524        -19.437
   0.526        -19.437
   0.528        -19.437
   0.530        -19.438
   0.532        -19.438
   0.535        -19.438
   0.537        -19.438
   0.539        -19.438
   0.541        -19.439
   0.543        -19.439
   0.545        -19.439
   0.548        -19.439
   0.550        -19.440
   0.552        -19.440
   0.554        -19.440
   0.556        -19.440
   0.558        -19.441
   0.561        -19.441
   0.563        -19.441
   0.565        -19.441
   0.567        -19.442
   0.569        -19.442
   0.572        -19.442
   0.574        -19.442
   0.576        -19.443
   0.578        -19.443
   0.580        -19.443
   0.582        -19.444
   0.585        -19.444
   0.587        -19.444
   0.589        -19.445
   0.591        -19.445
   0.593        -19.445
   0.595        -19.446
   0.598        -19.446
   0.600        -19.446
   0.602        -19.447
   0.604        -19.447
   0.606        -19.447
   0.608        -19.448
   0.611        -19.448
   0.613        -19.449
   0.615        -19.449
   0.617        -19.449
   0.619        -19.450
   0.621        -19.450
   0.624        -19.450
   0.626        -19.451
   0.628        -19.451
   0.630        -19.452
   0.632        -19.452
   0.634        -19.452
   0.637        -19.453
   0.639        -19.453
   0.641        -19.454
   0.643        -19.454
   0.645        -19.455
   0.647        -19.455
   0.650        -19.455
   0.652        -19.456
   0.654        -19.456
   0.656        -19.457
   0.658        -19.457
   0.660        -19.458
   0.663        -19.458
   0.665        -19.458
   0.667        -19.459
   0.669        -19.459
   0.671        -19.460
   0.673        -19.460
   0.676        -19.461
   0.678        -19.461
   0.680        -19.462
   0.682        -19.462
   0.684        -19.463
   0.687        -19.464
   0.689        -19.464
   0.691        -19.465
   0.693        -19.465
   0.695        -19.466
   0.697        -19.466
   0.700        -19.467
   0.702        -19.468
   0.704        -19.469
   0.706        -19.470
   0.708        -19.470
   0.710        -19.471
   0.713        -19.472
   0.715        -19.473
   0.717        -19.473
   0.719        -19.474
   0.721        -19.475
   0.723        -19.476
   0.726        -19.477
   0.728        -19.479
   0.730        -19.480
   0.732        -19.481
   0.734        -19.482
   0.736        -19.483
   0.739        -19.484
   0.741        -19.485
   0.743        -19.486
   0.745        -19.487
   0.747        -19.488
   0.750        -19.490
   0.752        -19.491
   0.754        -19.492
   0.756        -19.493
   0.758        -19.494
   0.760        -19.495
   0.762        -19.497
   0.765        -19.498
   0.767        -19.499
   0.769        -19.501
   0.771        -19.502
   0.773        -19.503
   0.776        -19.504
   0.778        -19.506
   0.780        -19.507
   0.782        -19.509
   0.784        -19.510
   0.786        -19.512
   0.789        -19.514
   0.791        -19.515
   0.793        -19.517
   0.795        -19.519
   0.797        -19.520
   0.799        -19.522
   0.802        -19.524
   0.804        -19.526
   0.806        -19.528
   0.808        -19.530
   0.810        -19.532
   0.812        -19.534
   0.815        -19.536
   0.817        -19.538
   0.819        -19.540
   0.821        -19.542
   0.823        -19.544
   0.825        -19.547
   0.828        -19.549
   0.830        -19.551
   0.832        -19.554
   0.834        -19.556
   0.836        -19.558
   0.838        -19.561
   0.841        -19.563
   0.843        -19.565
   0.845        -19.568
   0.847        -19.570
   0.849        -19.573
   0.852        -19.576
   0.854        -19.578
   0.856        -19.581
   0.858        -19.583
   0.860        -19.586
   0.862        -19.588
   0.865        -19.591
   0.867        -19.594
   0.869        -19.597
   0.871        -19.600
   0.873        -19.602
   0.875        -19.605
   0.878        -19.608
   0.880        -19.611
   0.882        -19.613
   0.884        -19.616
   0.886        -19.619
   0.888        -19.623
   0.891        -19.626
   0.893        -19.630
   0.895        -19.633
   0.897        -19.637
   0.899        -19.640
   0.901        -19.643
   0.904        -19.647
   0.906        -19.650
   0.908        -19.654
   0.910        -19.659
   0.912        -19.663
   0.915        -19.667
   0.917        -19.671
   0.919        -19.675
   0.921        -19.679
   0.923        -19.683
   0.925        -19.687
   0.928        -19.692
   0.930        -19.697
   0.932        -19.702
   0.934        -19.707
   0.936        -19.712
   0.938        -19.717
   0.941        -19.722
   0.943        -19.727
   0.945        -19.732
   0.947        -19.737
   0.949        -19.743
   0.951        -19.750
   0.954        -19.757
   0.956        -19.764
   0.958        -19.770
   0.960        -19.777
   0.962        -19.784
   0.964        -19.790
   0.967        -19.797
   0.969        -19.803
   0.971        -19.809
   0.973        -19.814
   0.975        -19.819
   0.977        -19.825
   0.980        -19.830
   0.982        -19.836
   0.984        -19.841
   0.986        -19.847
   0.988        -19.854
   0.990        -19.861
   0.993        -19.868
   0.995        -19.874
   0.997        -19.880
   0.999        -19.886
   1.001        -19.893
   1.004        -19.899
   1.006        -19.905
   1.008        -19.911
   1.010        -19.919
   1.012        -19.930
   1.014        -19.942
   1.017        -19.954
   1.019        -19.965
   1.021        -19.977
   1.023        -19.988
   1.025        -20.000
   1.027        -20.011
   1.030        -20.023
   1.032        -20.038
   1.034        -20.054
   1.036        -20.071
   1.038        -20.087
   1.040        -20.104
   1.043        -20.120
   1.045        -20.137
   1.047        -20.153
   1.049        -20.170
   1.051        -20.188
   1.053        -20.213
   1.056        -20.239
   1.058        -20.264
   1.060        -20.290
   1.062        -20.316
   1.064        -20.342
   1.066        -20.368
   1.069        -20.394
   1.071        -20.420
   1.073        -20.458
   1.075        -20.509
   1.077        -20.560
   1.079        -20.610
   1.082        -20.661
   1.084        -20.712
   1.086        -20.763
   1.088        -20.813
   1.090        -20.864
   1.093        -20.914
   1.095        -20.958
   1.097        -21.000
   1.099        -21.042
   1.101        -21.084
   1.103        -21.126
   1.106        -21.168
   1.108        -21.210
   1.110        -21.252
   1.112        -21.299
   1.114        -21.325
   1.117        -21.328
   1.119        -21.331
   1.121        -21.334
   1.123        -21.337
   1.125        -21.340
   1.127        -21.343
   1.129        -21.346
   1.131        -21.348
   1.134        -21.352
   1.136        -21.354
   1.138        -21.357
   1.140        -21.360
   1.143        -21.362
   1.145        -21.365
   1.147        -21.368
   1.149        -21.371
   1.151        -21.373
   1.153        -21.376
   1.155        -21.379
   1.158        -21.382
   1.160        -21.384
   1.162        -21.387
   1.164        -21.390
   1.166        -21.392
   1.169        -21.395
   1.171        -21.398
   1.173        -21.400
   1.175        -21.403
   1.177        -21.406
   1.180        -21.409
   1.181        -21.411
   1.184        -21.414
   1.186        -21.417
   1.188        -21.420
   1.190        -21.422
   1.192        -21.425
   1.195        -21.428
   1.197        -21.431
   1.199        -21.434
   1.201        -21.436
   1.203        -21.439
   1.205        -21.442
   1.208        -21.445
   1.210        -21.448
   1.212        -21.451
   1.214        -21.453
   1.216        -21.456
   1.218        -21.459
   1.220        -21.462
   1.223        -21.465
   1.225        -21.467
   1.227        -21.471
   1.229        -21.473
   1.232        -21.476
   1.234        -21.479
   1.236        -21.482
   1.238        -21.485
   1.240        -21.488
   1.242        -21.491
   1.245        -21.494
   1.247        -21.496
   1.249        -21.499
   1.251        -21.502
   1.253        -21.505
   1.255        -21.508
   1.258        -21.511
   1.260        -21.514
   1.262        -21.517
   1.264        -21.520
   1.266        -21.523
   1.268        -21.526
   1.270        -21.529
   1.273        -21.533
   1.275        -21.536
   1.277        -21.539
   1.279        -21.542
   1.281        -21.545
   1.284        -21.549
   1.286        -21.552
   1.288        -21.555
   1.290        -21.559
   1.292        -21.562
   1.294        -21.565
   1.297        -21.568
   1.299        -21.572
   1.301        -21.575
   1.303        -21.579
   1.305        -21.582
   1.307        -21.586
   1.310        -21.589
   1.312        -21.592
   1.314        -21.596
   1.316        -21.600
   1.318        -21.603
   1.320        -21.606
   1.323        -21.610
   1.325        -21.614
   1.327        -21.617
   1.329        -21.620
   1.331        -21.624
   1.334        -21.628
   1.336        -21.631
   1.338        -21.635
   1.340        -21.638
   1.342        -21.641
   1.344        -21.645
   1.346        -21.649
   1.349        -21.652
   1.351        -21.656
   1.353        -21.660
   1.355        -21.663
   1.357        -21.667
   1.359        -21.670
   1.362        -21.674
   1.364        -21.677
   1.366        -21.681
   1.368        -21.684
   1.370        -21.688
   1.373        -21.691
   1.375        -21.694
   1.377        -21.697
   1.379        -21.701
   1.381        -21.704
   1.383        -21.707
   1.386        -21.710
   1.388        -21.712
   1.390        -21.715
   1.392        -21.718
   1.394        -21.720
   1.397        -21.723
   1.399        -21.725
   1.401        -21.728
   1.403        -21.731
   1.405        -21.733
   1.407        -21.736
   1.410        -21.739
   1.412        -21.741
   1.414        -21.744
   1.416        -21.747
   1.418        -21.750
   1.420        -21.752
   1.423        -21.755
   1.425        -21.757
   1.427        -21.760
   1.429        -21.763
   1.431        -21.766
   1.433        -21.768
   1.436        -21.771
   1.438        -21.774
   1.440        -21.776
   1.442        -21.779
   1.444        -21.782
   1.446        -21.784
   1.449        -21.787
   1.451        -21.790
   1.453        -21.793
   1.455        -21.796
   1.457        -21.798
   1.460        -21.801
   1.462        -21.804
   1.464        -21.807
   1.466        -21.809
   1.468        -21.812
   1.470        -21.815
   1.472        -21.818
   1.475        -21.821
   1.477        -21.824
   1.479        -21.827
   1.481        -21.830
   1.483        -21.833
   1.486        -21.836
   1.488        -21.839
   1.490        -21.842
   1.492        -21.845
   1.494        -21.848
   1.496        -21.851
   1.498        -21.854
   1.501        -21.857
   1.503        -21.860
   1.505        -21.863
   1.507        -21.866
   1.509        -21.869
   1.512        -21.872
   1.514        -21.875
   1.516        -21.878
   1.518        -21.881
   1.520        -21.884
   1.522        -21.887
   1.525        -21.890
   1.527        -21.893
   1.529        -21.897
   1.531        -21.900
   1.533        -21.903
   1.535        -21.906
   1.538        -21.910
   1.540        -21.913
   1.542        -21.916
   1.544        -21.919
   1.546        -21.923
   1.549        -21.926
   1.551        -21.930
   1.553        -21.934
   1.555        -21.937
   1.557        -21.941
   1.559        -21.945
   1.561        -21.949
   1.564        -21.952
   1.566        -21.957
   1.568        -21.960
   1.570        -21.964
   1.572        -21.968
   1.575        -21.972
   1.577        -21.976
   1.579        -21.980
   1.581        -21.984
   1.583        -21.988
   1.585        -21.992
   1.588        -21.996
   1.590        -22.046
   1.592        -22.146
   1.594        -22.152
   1.596        -22.158
   1.598        -22.163
   1.601        -22.169
   1.603        -22.175
   1.605        -22.181
   1.607        -22.187
   1.609        -22.192
   1.611        -22.198
   1.614        -22.205
   1.616        -22.211
   1.618        -22.218
   1.620        -22.224
   1.622        -22.231
   1.624        -22.238
   1.627        -22.244
   1.629        -22.250
   1.631        -22.257
   1.633        -22.264
   1.635        -22.271
   1.637        -22.278
   1.640        -22.285
   1.642        -22.292
   1.644        -22.300
   1.646        -22.307
   1.648        -22.314
   1.651        -22.321
   1.653        -22.328
   1.655        -22.336
   1.657        -22.344
   1.659        -22.352
   1.661        -22.360
   1.664        -22.368
   1.666        -22.376
   1.668        -22.384
   1.670        -22.391
   1.672        -22.399
   1.674        -22.407
   1.676        -22.416
   1.679        -22.426
   1.681        -22.435
   1.683        -22.444
   1.685        -22.453
   1.687        -22.462
   1.690        -22.471
   1.692        -22.480
   1.694        -22.490
   1.696        -22.500
   1.699        -22.514
   1.701        -22.525
   1.703        -22.536
   1.705        -22.547
   1.707        -22.558
   1.709        -22.570
   1.711        -22.582
   1.714        -22.594
   1.716        -22.603
   1.718        -22.623
   1.720        -22.643
   1.722        -22.668
   1.724        -22.692
   1.727        -22.716
   1.729        -22.741
   1.731        -22.765
   1.733        -22.789
   1.735        -22.814
   1.737        -22.834
   1.739        -22.847
   1.742        -22.860
   1.744        -22.872
   1.746        -22.885
   1.748        -22.898
   1.750        -22.911
   1.753        -22.924
   1.755        -22.936
   1.757        -22.949
   1.759        -22.956
   1.761        -22.961
   1.763        -22.967
   1.766        -22.972
   1.768        -22.978
   1.770        -22.983
   1.772        -22.989
   1.774        -22.995
   1.776        -23.000
   1.779        -23.005
   1.781        -23.008
   1.783        -23.010
   1.785        -23.013
   1.787        -23.015
   1.789        -23.018
   1.792        -23.021
   1.794        -23.023
   1.796        -23.026
   1.798        -23.028
   1.800        -23.031
   1.802        -23.032
   1.805        -23.034
   1.807        -23.036
   1.809        -23.037
   1.811        -23.039
   1.813        -23.041
   1.816        -23.042
   1.818        -23.044
   1.820        -23.046
   1.822        -23.047
   1.824        -23.049
   1.826        -23.050
   1.829        -23.052
   1.831        -23.054
   1.833        -23.055
   1.835        -23.057
   1.837        -23.058
   1.839        -23.060
   1.842        -23.061
   1.844        -23.062
   1.846        -23.064
   1.848        -23.066
   1.850        -23.067
   1.852        -23.069
   1.855        -23.070
   1.857        -23.072
   1.859        -23.073
   1.861        -23.075
   1.863        -23.076
   1.865        -23.078
   1.868        -23.080
   1.870        -23.081
   1.872        -23.083
   1.874        -23.084
   1.876        -23.086
   1.878        -23.087
   1.881        -23.089
   1.883        -23.091
   1.885        -23.092
   1.887        -23.094
   1.889        -23.095
   1.891        -23.097
   1.894        -23.099
   1.896        -23.100
   1.898        -23.102
   1.900        -23.104
   1.902        -23.105
   1.905        -23.107
   1.907        -23.109
   1.909        -23.110
   1.911        -23.112
   1.913        -23.114
   1.915        -23.116
   1.918        -23.118
   1.920        -23.119
   1.922        -23.121
   1.924        -23.123
   1.926        -23.125
   1.928        -23.126
   1.931        -23.128
   1.933        -23.130
   1.935        -23.132
   1.937        -23.134
   1.939        -23.135
   1.941        -23.137
   1.944        -23.139
   1.946        -23.141
   1.948        -23.143
   1.950        -23.145
   1.952        -23.147
   1.954        -23.149
   1.957        -23.151
   1.959        -23.153
   1.961        -23.154
   1.963        -23.156
   1.965        -23.158
   1.967        -23.160
   1.970        -23.162
   1.972        -23.164
   1.974        -23.166
   1.976        -23.168
   1.978        -23.170
   1.980        -23.172
   1.983        -23.174
   1.985        -23.176
   1.987        -23.178
   1.989        -23.180
   1.991        -23.182
   1.993        -23.184
   1.996        -23.186
   1.998        -23.188
   2.000        -23.190
   2.002        -23.192
   2.004        -23.194
   2.007        -23.196
   2.009        -23.198
   2.011        -23.200
   2.013        -23.203
   2.015        -23.205
   2.017        -23.207
   2.020        -23.209
   2.022        -23.211
   2.024        -23.213
   2.026        -23.215
   2.028        -23.218
   2.030        -23.219
   2.033        -23.222
   2.035        -23.224
   2.037        -23.226
   2.039        -23.228
   2.041        -23.230
   2.043        -23.233
   2.046        -23.235
   2.048        -23.237
   2.050        -23.239
   2.052        -23.241
   2.054        -23.243
   2.056        -23.246
   2.059        -23.248
   2.061        -23.250
   2.063        -23.252
   2.065        -23.254
   2.067        -23.256
   2.069        -23.259
   2.072        -23.261
   2.074        -23.263
   2.076        -23.265
   2.078        -23.267
   2.080        -23.270
   2.083        -23.272
   2.085        -23.274
   2.087        -23.276
   2.089        -23.279
   2.091        -23.281
   2.093        -23.283
   2.096        -23.285
   2.098        -23.287
   2.100        -23.290
   2.102        -23.292
   2.104        -23.294
   2.106        -23.296
   2.109        -23.298
   2.111        -23.301
   2.113        -23.303
   2.115        -23.305
   2.117        -23.307
   2.120        -23.310
   2.122        -23.312
   2.124        -23.314
   2.126        -23.316
   2.128        -23.318
   2.130        -23.320
   2.133        -23.323
   2.135        -23.325
   2.137        -23.327
   2.139        -23.329
   2.141        -23.331
   2.143        -23.333
   2.145        -23.335
   2.148        -23.338
   2.150        -23.340
   2.152        -23.342
   2.154        -23.344
   2.157        -23.346
   2.158        -23.348
   2.161        -23.351
   2.163        -23.353
   2.165        -23.355
   2.167        -23.357
   2.169        -23.359
   2.172        -23.361
   2.174        -23.363
   2.176        -23.365
   2.178        -23.368
   2.180        -23.370
   2.183        -23.372
   2.185        -23.374
   2.187        -23.376
   2.189        -23.378
   2.191        -23.380
   2.193        -23.382
   2.195        -23.384
   2.197        -23.386
   2.200        -23.388
   2.202        -23.390
   2.204        -23.392
   2.206        -23.394
   2.208        -23.396
   2.211        -23.398
   2.213        -23.400
   2.215        -23.403
   2.217        -23.404
   2.219        -23.407
   2.221        -23.408
   2.224        -23.410
   2.226        -23.412
   2.228        -23.414
   2.230        -23.416
   2.232        -23.418
   2.235        -23.420
   2.237        -23.422
   2.239        -23.424
   2.241        -23.426
   2.243        -23.428
   2.245        -23.429
   2.247        -23.431
   2.250        -23.433
   2.252        -23.435
   2.254        -23.437
   2.256        -23.439
   2.259        -23.441
   2.261        -23.443
   2.263        -23.444
   2.265        -23.446
   2.267        -23.448
   2.269        -23.450
   2.271        -23.451
   2.274        -23.453
   2.276        -23.455
   2.278        -23.457
   2.280        -23.458
   2.282        -23.460
   2.284        -23.462
   2.287        -23.463
   2.289        -23.465
   2.291        -23.467
   2.293        -23.469
   2.295        -23.470
   2.297        -23.472
   2.299        -23.474
   2.302        -23.475
   2.304        -23.477
   2.306        -23.479
   2.308        -23.480
   2.310        -23.482
   2.313        -23.483
   2.315        -23.485
   2.317        -23.487
   2.319        -23.488
   2.321        -23.490
   2.323        -23.492
   2.326        -23.493
   2.328        -23.495
   2.330        -23.496
   2.332        -23.498
   2.334        -23.500
   2.337        -23.501
   2.339        -23.503
   2.341        -23.504
   2.343        -23.506
   2.345        -23.507
   2.347        -23.509
   2.349        -23.511
   2.352        -23.512
   2.354        -23.514
   2.356        -23.515
   2.358        -23.517
   2.360        -23.519
   2.363        -23.520
   2.365        -23.522
   2.367        -23.523
   2.369        -23.525
   2.371        -23.527
   2.374        -23.528
   2.376        -23.530
   2.378        -23.531
   2.380        -23.533
   2.382        -23.534
   2.384        -23.536
   2.386        -23.538
   2.389        -23.539
   2.391        -23.541
   2.393        -23.542
   2.395        -23.544
   2.397        -23.546
   2.400        -23.547
   2.402        -23.549
   2.404        -23.551
   2.406        -23.552
   2.408        -23.554
   2.410        -23.556
   2.413        -23.557
   2.415        -23.559
   2.417        -23.561
   2.419        -23.562
   2.421        -23.564
   2.423        -23.565
   2.425        -23.567
   2.428        -23.568
   2.430        -23.570
   2.432        -23.571
   2.434        -23.572
   2.436        -23.574
   2.439        -23.575
   2.441        -23.576
   2.443        -23.578
   2.445        -23.579
   2.447        -23.580
   2.449        -23.581
   2.452        -23.582
   2.454        -23.584
   2.456        -23.585
   2.458        -23.586
   2.460        -23.587
   2.462        -23.588
   2.465        -23.589
   2.467        -23.590
   2.469        -23.591
   2.471        -23.592
   2.473        -23.594
   2.475        -23.595
   2.478        -23.596
   2.480        -23.597
   2.482        -23.598
   2.484        -23.599
   2.486        -23.601
   2.489        -23.602
   2.491        -23.603
   2.493        -23.605
   2.495        -23.606
   2.497        -23.608
   2.499        -23.609
   2.502        -23.610
   2.504        -23.611
   2.506        -23.613
   2.508        -23.614
   2.510        -23.616
   2.512        -23.617
   2.514        -23.619
   2.517        -23.621
   2.519        -23.622
   2.521        -23.624
   2.523        -23.625
   2.525        -23.627
   2.528        -23.628
   2.530        -23.630
   2.532        -23.632
   2.534        -23.634
   2.536        -23.636
   2.538        -23.638
   2.541        -23.640
   2.543        -23.642
   2.545        -23.644
   2.547        -23.645
   2.549        -23.648
   2.552        -23.650
   2.554        -23.652
   2.556        -23.654
   2.558        -23.657
   2.560        -23.659
   2.562        -23.662
   2.565        -23.664
   2.567        -23.666
   2.569        -23.669
   2.571        -23.671
   2.573        -23.674
   2.575        -23.677
   2.578        -23.680
   2.580        -23.682
   2.582        -23.685
   2.584        -23.688
   2.586        -23.691
   2.588        -23.693
   2.590        -23.697
   2.593        -23.700
   2.595        -23.703
   2.597        -23.707
   2.599        -23.710
   2.601        -23.714
   2.604        -23.717
   2.606        -23.720
   2.608        -23.724
   2.610        -23.727
   2.612        -23.731
   2.614        -23.735
   2.617        -23.739
   2.619        -23.744
   2.621        -23.748
   2.623        -23.752
   2.625        -23.756
   2.627        -23.760
   2.630        -23.764
   2.632        -23.768
   2.634        -23.773
   2.636        -23.778
   2.638        -23.783
   2.641        -23.788
   2.643        -23.792
   2.645        -23.797
   2.647        -23.802
   2.649        -23.807
   2.651        -23.812
   2.654        -23.817
   2.656        -23.823
   2.658        -23.828
   2.660        -23.834
   2.662        -23.840
   2.664        -23.845
   2.666        -23.851
   2.669        -23.857
   2.671        -23.862
   2.673        -23.868
   2.675        -23.874
   2.677        -23.880
   2.680        -23.886
   2.682        -23.892
   2.684        -23.898
   2.686        -23.905
   2.688        -23.911
   2.690        -23.917
   2.693        -23.923
   2.695        -23.929
   2.697        -23.935
   2.699        -23.940
   2.701        -23.946
   2.703        -23.952
   2.706        -23.958
   2.708        -23.964
   2.710        -23.969
   2.712        -23.975
   2.714        -23.980
   2.716        -23.986
   2.719        -23.991
   2.721        -23.996
   2.723        -24.000
   2.725        -24.005
   2.727        -24.010
   2.729        -24.015
   2.732        -24.020
   2.734        -24.025
   2.736        -24.030
   2.738        -24.034
   2.740        -24.038
   2.743        -24.042
   2.745        -24.047
   2.747        -24.051
   2.749        -24.055
   2.751        -24.059
   2.753        -24.063
   2.756        -24.068
   2.758        -24.072
   2.760        -24.075
   2.762        -24.079
   2.764        -24.083
   2.766        -24.087
   2.769        -24.091
   2.771        -24.094
   2.773        -24.098
   2.775        -24.102
   2.777        -24.106
   2.779        -24.109
   2.782        -24.113
   2.784        -24.116
   2.786        -24.119
   2.788        -24.123
   2.790        -24.126
   2.792        -24.129
   2.795        -24.133
   2.797        -24.136
   2.799        -24.139
   2.801        -24.142
   2.803        -24.145
   2.805        -24.148
   2.808        -24.151
   2.810        -24.154
   2.812        -24.157
   2.814        -24.160
   2.816        -24.163
   2.819        -24.166
   2.821        -24.169
   2.823        -24.172
   2.825        -24.174
   2.827        -24.177
   2.829        -24.179
   2.832        -24.182
   2.834        -24.185
   2.836        -24.188
   2.838        -24.190
   2.840        -24.193
   2.842        -24.195
   2.845        -24.197
   2.847        -24.200
   2.849        -24.202
   2.851        -24.204
   2.853        -24.207
   2.855        -24.209
   2.858        -24.211
   2.860        -24.213
   2.862        -24.216
   2.864        -24.218
   2.866        -24.220
   2.868        -24.221
   2.871        -24.224
   2.873        -24.225
   2.875        -24.228
   2.877        -24.229
   2.879        -24.232
   2.881        -24.233
   2.884        -24.235
   2.886        -24.237
   2.888        -24.239
   2.890        -24.241
   2.892        -24.243
   2.894        -24.245
   2.897        -24.246
   2.899        -24.248
   2.901        -24.250
   2.903        -24.252
   2.905        -24.254
   2.908        -24.255
   2.910        -24.257
   2.912        -24.258
   2.914        -24.260
   2.916        -24.261
   2.918        -24.263
   2.921        -24.264
   2.923        -24.266
   2.925        -24.267
   2.927        -24.269
   2.929        -24.270
   2.931        -24.271
   2.934        -24.273
   2.936        -24.274
   2.938        -24.275
   2.940        -24.277
   2.942        -24.278
   2.944        -24.279
   2.947        -24.280
   2.949        -24.282
   2.951        -24.283
   2.953        -24.284
   2.955        -24.285
   2.957        -24.287
   2.960        -24.288
   2.962        -24.289
   2.964        -24.290
   2.966        -24.291
   2.968        -24.293
   2.970        -24.294
   2.973        -24.295
   2.975        -24.296
   2.977        -24.297
   2.979        -24.298
   2.981        -24.299
   2.984        -24.301
   2.986        -24.302
   2.988        -24.303
   2.990        -24.304
   2.992        -24.305
   2.994        -24.306
   2.997        -24.307
   2.999        -24.308
   3.001        -24.309
   3.003        -24.310
   3.005        -24.312
   3.007        -24.313
   3.010        -24.314
   3.012        -24.315
   3.014        -24.316
   3.016        -24.317
   3.018        -24.318
   3.020        -24.319
   3.023        -24.320
   3.025        -24.321
   3.027        -24.322
   3.029        -24.323
   3.031        -24.324
   3.033        -24.325
   3.036        -24.327
   3.038        -24.327
   3.040        -24.328
   3.042        -24.329
   3.044        -24.330
   3.046        -24.332
   3.049        -24.333
   3.051        -24.334
   3.053        -24.335
   3.055        -24.336
   3.057        -24.337
   3.060        -24.338
   3.062        -24.339
   3.064        -24.340
   3.066        -24.341
   3.068        -24.342
   3.070        -24.343
   3.073        -24.344
   3.075        -24.345
   3.077        -24.346
   3.079        -24.347
   3.081        -24.348
   3.083        -24.349
   3.086        -24.350
   3.088        -24.351
   3.090        -24.352
   3.092        -24.353
   3.094        -24.354
   3.096        -24.355
   3.099        -24.356
   3.101        -24.357
   3.103        -24.358
   3.105        -24.359
   3.107        -24.360
   3.109        -24.361
   3.112        -24.362
   3.114        -24.363
   3.116        -24.364
   3.118        -24.365
   3.120        -24.366
   3.123        -24.367
   3.125        -24.368
   3.127        -24.368
   3.129        -24.370
   3.131        -24.370
   3.133        -24.372
   3.136        -24.372
   3.138        -24.373
   3.140        -24.374
   3.142        -24.375
   3.144        -24.376
   3.146        -24.377
   3.149        -24.378
   3.151        -24.379
   3.153        -24.380
   3.155        -24.381
   3.157        -24.382
   3.159        -24.383
   3.162        -24.384
   3.164        -24.385
   3.166        -24.386
   3.168        -24.387
   3.170        -24.388
   3.172        -24.389
   3.175        -24.390
   3.177        -24.391
   3.179        -24.392
   3.181        -24.393
   3.183        -24.394
   3.185        -24.395
   3.188        -24.396
   3.190        -24.397
   3.192        -24.398
   3.194        -24.399
   3.196        -24.400
   3.199        -24.401
   3.201        -24.402
   3.203        -24.403
   3.205        -24.404
   3.207        -24.405
   3.209        -24.406
   3.212        -24.407
   3.214        -24.408
   3.216        -24.409
   3.218        -24.410
   3.220        -24.411
   3.222        -24.412
   3.225        -24.413
   3.227        -24.414
   3.229        -24.415
   3.231        -24.416
   3.233        -24.417
   3.236        -24.418
   3.237        -24.419
   3.240        -24.420
   3.242        -24.421
   3.244        -24.422
   3.246        -24.423
   3.248        -24.424
   3.251        -24.425
   3.253        -24.426
   3.255        -24.427
   3.257        -24.428
   3.259        -24.429
   3.261        -24.430
   3.263        -24.431
   3.266        -24.431
   3.268        -24.433
   3.270        -24.434
   3.272        -24.435
   3.274        -24.435
   3.277        -24.436
   3.279        -24.437
   3.281        -24.438
   3.283        -24.439
   3.285        -24.440
   3.287        -24.441
   3.290        -24.442
   3.292        -24.443
   3.294        -24.444
   3.296        -24.445
   3.298        -24.446
   3.301        -24.447
   3.303        -24.448
   3.305        -24.449
   3.307        -24.450
   3.309        -24.452
   3.311        -24.452
   3.313        -24.454
   3.316        -24.455
   3.318        -24.456
   3.320        -24.457
   3.322        -24.458
   3.324        -24.459
   3.327        -24.460
   3.329        -24.461
   3.331        -24.463
   3.333        -24.463
   3.335        -24.465
   3.337        -24.466
   3.340        -24.467
   3.342        -24.468
   3.344        -24.469
   3.346        -24.470
   3.348        -24.471
   3.350        -24.472
   3.352        -24.473
   3.355        -24.474
   3.357        -24.475
   3.359        -24.477
   3.361        -24.477
   3.363        -24.478
   3.366        -24.479
   3.368        -24.480
   3.370        -24.482
   3.372        -24.483
   3.374        -24.484
   3.376        -24.485
   3.379        -24.486
   3.381        -24.487
   3.383        -24.488
   3.385        -24.489
   3.387        -24.490
   3.389        -24.491
   3.392        -24.492
   3.394        -24.493
   3.396        -24.494
   3.398        -24.495
   3.400        -24.496
   3.402        -24.497
   3.405        -24.498
   3.407        -24.499
   3.409        -24.500
   3.411        -24.501
   3.413        -24.502
   3.416        -24.503
   3.418        -24.504
   3.420        -24.504
   3.422        -24.505
   3.424        -24.506
   3.426        -24.507
   3.429        -24.508
   3.431        -24.509
   3.433        -24.510
   3.435        -24.511
   3.437        -24.512
   3.439        -24.513
   3.442        -24.514
   3.444        -24.515
   3.446        -24.516
   3.448        -24.517
   3.450        -24.518
   3.452        -24.519
   3.455        -24.520
   3.457        -24.521
   3.459        -24.522
   3.461        -24.523
   3.463        -24.524
   3.466        -24.525
   3.468        -24.526
   3.470        -24.527
   3.472        -24.528
   3.474        -24.529
   3.476        -24.530
   3.478        -24.531
   3.481        -24.532
   3.483        -24.533
   3.485        -24.534
   3.487        -24.535
   3.489        -24.536
   3.492        -24.537
   3.494        -24.538
   3.496        -24.539
   3.498        -24.540
   3.500        -24.540
   3.502        -24.541
   3.505        -24.542
   3.507        -24.543
   3.509        -24.544
   3.511        -24.545
   3.513        -24.546
   3.515        -24.547
   3.518        -24.548
   3.520        -24.549
   3.522        -24.550
   3.524        -24.551
   3.526        -24.552
   3.528        -24.553
   3.531        -24.554
   3.533        -24.555
   3.535        -24.556
   3.537        -24.557
   3.539        -24.558
   3.541        -24.559
   3.544        -24.560
   3.546        -24.561
   3.548        -24.562
   3.550        -24.563
   3.552        -24.564
   3.555        -24.564
   3.557        -24.565
   3.559        -24.566
   3.561        -24.567
   3.563        -24.568
   3.565        -24.569
   3.568        -24.570
   3.570        -24.571
   3.572        -24.572
   3.574        -24.573
   3.576        -24.574
   3.578        -24.575
   3.581        -24.576
   3.583        -24.577
   3.585        -24.578
   3.587        -24.579
   3.589        -24.580
   3.591        -24.580
   3.594        -24.581
   3.596        -24.583
   3.598        -24.583
   3.600        -24.584
   3.602        -24.585
   3.604        -24.586
   3.607        -24.587
   3.609        -24.588
   3.611        -24.589
   3.613        -24.590
   3.615        -24.591
   3.617        -24.592
   3.620        -24.593
   3.622        -24.594
   3.624        -24.595
   3.626        -24.596
   3.628        -24.597
   3.630        -24.598
   3.633        -24.599
   3.635        -24.600
   3.637        -24.601
   3.639        -24.602
   3.641        -24.603
   3.644        -24.604
   3.646        -24.605
   3.648        -24.606
   3.650        -24.607
   3.652        -24.608
   3.654        -24.609
   3.657        -24.610
   3.659        -24.611
   3.661        -24.612
   3.663        -24.613
   3.665        -24.614
   3.667        -24.615
   3.670        -24.616
   3.672        -24.617
   3.674        -24.618
   3.676        -24.619
   3.678        -24.620
   3.680        -24.621
   3.683        -24.622
   3.685        -24.623
   3.687        -24.624
   3.689        -24.625
   3.691        -24.626
   3.693        -24.627
   3.696        -24.628
   3.698        -24.629
   3.700        -24.631
   3.702        -24.632
   3.704        -24.633
   3.706        -24.634
   3.709        -24.635
   3.711        -24.636
   3.713        -24.637
   3.715        -24.638
   3.717        -24.639
   3.719        -24.641
   3.722        -24.642
   3.724        -24.643
   3.726        -24.644
   3.728        -24.645
   3.730        -24.646
   3.733        -24.648
   3.735        -24.649
   3.737        -24.650
   3.739        -24.651
   3.741        -24.652
   3.743        -24.654
   3.746        -24.655
   3.748        -24.656
   3.750        -24.657
   3.752        -24.659
   3.754        -24.660
   3.756        -24.661
   3.759        -24.662
   3.761        -24.664
   3.763        -24.665
   3.765        -24.666
   3.767        -24.668
   3.769        -24.669
   3.772        -24.670
   3.774        -24.672
   3.776        -24.673
   3.778        -24.674
   3.780        -24.676
   3.782        -24.677
   3.785        -24.678
   3.787        -24.680
   3.789        -24.681
   3.791        -24.682
   3.793        -24.684
   3.795        -24.685
   3.798        -24.686
   3.800        -24.688
   3.802        -24.689
   3.804        -24.691
   3.806        -24.692
   3.809        -24.694
   3.811        -24.695
   3.813        -24.696
   3.815        -24.698
   3.817        -24.699
   3.819        -24.700
   3.822        -24.702
   3.824        -24.703
   3.826        -24.704
   3.828        -24.706
   3.830        -24.707
   3.832        -24.708
   3.835        -24.710
   3.837        -24.711
   3.839        -24.712
   3.841        -24.713
   3.843        -24.714
   3.845        -24.715
   3.848        -24.716
   3.850        -24.717
   3.852        -24.718
   3.854        -24.719
   3.856        -24.720
   3.858        -24.721
   3.861        -24.722
   3.863        -24.722
   3.865        -24.723
   3.867        -24.724
   3.869        -24.724
   3.871        -24.725
   3.874        -24.726
   3.876        -24.726
   3.878        -24.727
   3.880        -24.728
   3.882        -24.728
   3.885        -24.729
   3.887        -24.730
   3.889        -24.731
   3.891        -24.731
   3.899        -24.733
   3.912        -24.737
   3.925        -24.741
   3.938        -24.745
   3.951        -24.749
   3.964        -24.753
   3.977        -24.757
   3.990        -24.761
   4.003        -24.764
   4.016        -24.768
   4.029        -24.772
   4.042        -24.776
   4.055        -24.780
   4.068        -24.783
   4.081        -24.787
   4.094        -24.791
   4.107        -24.796
   4.120        -24.800
   4.133        -24.804
   4.146        -24.809
   4.159        -24.813
   4.172        -24.817
   4.185        -24.822
   4.198        -24.827
   4.211        -24.833
   4.224        -24.838
   4.237        -24.844
   4.250        -24.851
   4.263        -24.858
   4.276        -24.865
   4.289        -24.873
   4.302        -24.881
   4.315        -24.889
   4.328        -24.898
   4.341        -24.907
   4.354        -24.917
   4.367        -24.927
   4.380        -24.937
   4.393        -24.948
   4.406        -24.959
   4.420        -24.971
   4.432        -24.983
   4.445        -24.995
   4.459        -25.007
   4.471        -25.020
   4.484        -25.032
   4.498        -25.045
   4.510        -25.059
   4.524        -25.072
   4.537        -25.086
   4.550        -25.099
   4.563        -25.114
   4.576        -25.128
   4.589        -25.142
   4.602        -25.157
   4.615        -25.171
   4.628        -25.186
   4.641        -25.201
   4.654        -25.216
   4.667        -25.232
   4.680        -25.247
   4.693        -25.263
   4.706        -25.279
   4.719        -25.295
   4.732        -25.311
   4.745        -25.327
   4.758        -25.343
   4.771        -25.360
   4.784        -25.376
   4.797        -25.393
   4.810        -25.410
   4.823        -25.427
   4.836        -25.444
   4.849        -25.461
   4.862        -25.479
   4.875        -25.496
   4.888        -25.514
   4.901        -25.532
   4.914        -25.550
   4.927        -25.568
   4.940        -25.587
   4.953        -25.605
   4.966        -25.624
   4.979        -25.643
   4.992        -25.662
   5.005        -25.680
   5.018        -25.699
   5.031        -25.719
   5.044        -25.738
   5.057        -25.758
   5.070        -25.778
   5.083        -25.797
   5.096        -25.817
   5.109        -25.837
   5.123        -25.857
   5.136        -25.877
   5.149        -25.897
   5.162        -25.917
   5.175        -25.937
   5.188        -25.958
   5.201        -25.978
   5.214        -25.998
   5.227        -26.019
   5.240        -26.040
   5.253        -26.060
   5.266        -26.081
   5.279        -26.102
   5.292        -26.123
   5.305        -26.144
   5.318        -26.165
   5.331        -26.186
   5.344        -26.208
   5.357        -26.229
   5.370        -26.251
   5.383        -26.273
   5.396        -26.295
   5.409        -26.318
   5.422        -26.341
   5.435        -26.364
   5.448        -26.387
   5.461        -26.410
   5.474        -26.434
   5.487        -26.458
   5.500        -26.483
   5.513        -26.507
   5.526        -26.532
   5.539        -26.557
   5.552        -26.583
   5.565        -26.609
   5.578        -26.635
   5.591        -26.662
   5.604        -26.689
   5.617        -26.717
   5.630        -26.745
   5.643        -26.773
   5.656        -26.802
   5.669        -26.831
   5.682        -26.861
   5.695        -26.891
   5.708        -26.921
   5.721        -26.952
   5.734        -26.984
   5.748        -27.016
   5.761        -27.049
   5.774        -27.082
   5.787        -27.116
   5.800        -27.151
   5.813        -27.186
   5.826        -27.222
   5.839        -27.258
   5.852        -27.295
   5.865        -27.333
   5.878        -27.372
   5.891        -27.411
   5.904        -27.451
   5.917        -27.492
   5.930        -27.534
   5.943        -27.576
   5.956        -27.619
   5.969        -27.663
   5.982        -27.708
   5.995        -27.755
   6.008        -27.802
   6.021        -27.850
   6.034        -27.899
   6.047        -27.948
   6.060        -28.000
   6.073        -28.052
   6.086        -28.105
   6.099        -28.160
   6.112        -28.216
   6.125        -28.273
   6.138        -28.331
   6.151        -28.390
   6.164        -28.451
   6.177        -28.514
   6.190        -28.577
   6.203        -28.642
   6.216        -28.709
   6.229        -28.777
   6.242        -28.847
   6.255        -28.918
   6.268        -28.992
   6.281        -29.067
   6.294        -29.143
   6.307        -29.221
   6.320        -29.301
   6.334        -29.384
   6.346        -29.468
   6.359        -29.554
   6.372        -29.643
   6.386        -29.733
   6.399        -29.826
   6.411        -29.921
   6.425        -30.019
   6.438        -30.119
   6.451        -30.221
   6.464        -30.325
   6.477        -30.432
   6.490        -30.541
   6.503        -30.655
   6.516        -30.771
   6.529        -30.890
   6.542        -31.012
   6.555        -31.137
   6.568        -31.265
   6.581        -31.396
   6.594        -31.532
   6.607        -31.673
   6.620        -31.815
   6.633        -31.959
   6.646        -32.106
   6.659        -32.260
   6.672        -32.418
   6.685        -32.579
   6.698        -32.745
   6.711        -32.916
   6.724        -33.093
   6.737        -33.272
   6.750        -33.454
   6.763        -33.648
   6.776        -33.851
   6.789        -34.053
   6.802        -34.259
   6.815        -34.473
   6.828        -34.715
   6.841        -34.980
   6.854        -35.287
   6.867        -35.925
   6.880        -36.991
   6.893        -40.713
