# log Energy    log Jnu
# (eV)          (ergs/s/cm2/Hz/Sr)
  -6.864        -20.500
  -6.820        -20.413
  -6.777        -20.326
  -6.734        -20.239
  -6.690        -20.153
  -6.647        -20.066
  -6.603        -19.979
  -6.560        -19.892
  -6.516        -19.805
  -6.473        -19.718
  -6.430        -19.631
  -6.386        -19.544
  -6.343        -19.458
  -6.299        -19.371
  -6.256        -19.284
  -6.212        -19.197
  -6.169        -19.110
  -6.126        -19.023
  -6.082        -18.937
  -6.039        -18.850
  -5.995        -18.763
  -5.952        -18.676
  -5.908        -18.589
  -5.865        -18.503
  -5.822        -18.416
  -5.778        -18.329
  -5.735        -18.242
  -5.691        -18.155
  -5.648        -18.068
  -5.605        -17.982
  -5.561        -17.895
  -5.518        -17.808
  -5.474        -17.721
  -5.431        -17.635
  -5.387        -17.548
  -5.344        -17.461
  -5.300        -17.375
  -5.257        -17.288
  -5.214        -17.201
  -5.170        -17.115
  -5.127        -17.028
  -5.083        -16.941
  -5.040        -16.855
  -4.996        -16.768
  -4.953        -16.682
  -4.910        -16.595
  -4.866        -16.509
  -4.823        -16.422
  -4.779        -16.336
  -4.736        -16.250
  -4.692        -16.164
  -4.649        -16.077
  -4.606        -15.991
  -4.562        -15.905
  -4.519        -15.819
  -4.475        -15.733
  -4.432        -15.648
  -4.388        -15.562
  -4.345        -15.477
  -4.302        -15.391
  -4.258        -15.306
  -4.215        -15.221
  -4.171        -15.137
  -4.128        -15.052
  -4.084        -14.968
  -4.041        -14.884
  -3.998        -14.800
  -3.954        -14.717
  -3.911        -14.634
  -3.867        -14.551
  -3.824        -14.469
  -3.781        -14.388
  -3.737        -14.307
  -3.693        -14.226
  -3.650        -14.147
  -3.607        -14.068
  -3.584        -14.031
  -3.582        -14.022
  -3.580        -14.020
  -3.577        -14.017
  -3.575        -14.013
  -3.573        -14.009
  -3.571        -14.005
  -3.569        -14.001
  -3.567        -13.997
  -3.564        -13.993
  -3.562        -13.990
  -3.560        -13.986
  -3.558        -13.982
  -3.556        -13.978
  -3.554        -13.974
  -3.551        -13.970
  -3.549        -13.966
  -3.547        -13.963
  -3.545        -13.959
  -3.543        -13.955
  -3.540        -13.951
  -3.538        -13.947
  -3.536        -13.943
  -3.534        -13.940
  -3.532        -13.936
  -3.530        -13.932
  -3.528        -13.928
  -3.525        -13.924
  -3.523        -13.920
  -3.521        -13.917
  -3.519        -13.913
  -3.517        -13.909
  -3.514        -13.905
  -3.512        -13.902
  -3.510        -13.897
  -3.508        -13.894
  -3.506        -13.890
  -3.504        -13.886
  -3.502        -13.882
  -3.499        -13.879
  -3.497        -13.875
  -3.495        -13.871
  -3.493        -13.867
  -3.491        -13.863
  -3.488        -13.860
  -3.486        -13.856
  -3.484        -13.852
  -3.482        -13.848
  -3.480        -13.845
  -3.477        -13.841
  -3.475        -13.837
  -3.473        -13.833
  -3.471        -13.829
  -3.469        -13.826
  -3.467        -13.822
  -3.464        -13.818
  -3.462        -13.815
  -3.460        -13.811
  -3.458        -13.807
  -3.456        -13.803
  -3.454        -13.800
  -3.451        -13.796
  -3.449        -13.792
  -3.447        -13.788
  -3.445        -13.785
  -3.443        -13.781
  -3.441        -13.777
  -3.438        -13.774
  -3.436        -13.770
  -3.434        -13.766
  -3.432        -13.762
  -3.430        -13.759
  -3.428        -13.755
  -3.425        -13.751
  -3.423        -13.748
  -3.421        -13.744
  -3.419        -13.741
  -3.417        -13.737
  -3.415        -13.733
  -3.412        -13.729
  -3.410        -13.726
  -3.408        -13.722
  -3.406        -13.718
  -3.404        -13.715
  -3.402        -13.711
  -3.399        -13.708
  -3.397        -13.704
  -3.395        -13.700
  -3.393        -13.697
  -3.391        -13.693
  -3.389        -13.689
  -3.386        -13.686
  -3.384        -13.682
  -3.382        -13.679
  -3.380        -13.675
  -3.378        -13.671
  -3.376        -13.668
  -3.373        -13.664
  -3.371        -13.661
  -3.369        -13.657
  -3.367        -13.653
  -3.365        -13.650
  -3.362        -13.646
  -3.360        -13.643
  -3.358        -13.639
  -3.356        -13.636
  -3.354        -13.632
  -3.352        -13.628
  -3.349        -13.625
  -3.347        -13.621
  -3.345        -13.618
  -3.343        -13.614
  -3.341        -13.611
  -3.339        -13.607
  -3.336        -13.604
  -3.334        -13.600
  -3.332        -13.597
  -3.330        -13.593
  -3.328        -13.590
  -3.326        -13.586
  -3.323        -13.583
  -3.321        -13.579
  -3.319        -13.576
  -3.317        -13.572
  -3.315        -13.569
  -3.313        -13.565
  -3.310        -13.562
  -3.308        -13.558
  -3.306        -13.555
  -3.304        -13.552
  -3.302        -13.548
  -3.300        -13.545
  -3.297        -13.541
  -3.295        -13.538
  -3.293        -13.534
  -3.291        -13.531
  -3.289        -13.528
  -3.287        -13.524
  -3.284        -13.521
  -3.282        -13.517
  -3.280        -13.514
  -3.278        -13.511
  -3.276        -13.507
  -3.273        -13.504
  -3.271        -13.501
  -3.269        -13.497
  -3.267        -13.494
  -3.265        -13.491
  -3.263        -13.487
  -3.260        -13.484
  -3.258        -13.480
  -3.256        -13.477
  -3.254        -13.474
  -3.252        -13.470
  -3.250        -13.467
  -3.247        -13.464
  -3.245        -13.461
  -3.243        -13.457
  -3.241        -13.454
  -3.239        -13.451
  -3.237        -13.447
  -3.234        -13.444
  -3.232        -13.441
  -3.230        -13.438
  -3.228        -13.434
  -3.226        -13.431
  -3.224        -13.428
  -3.221        -13.425
  -3.219        -13.421
  -3.217        -13.418
  -3.215        -13.415
  -3.213        -13.412
  -3.211        -13.409
  -3.208        -13.405
  -3.206        -13.402
  -3.204        -13.399
  -3.202        -13.396
  -3.200        -13.393
  -3.197        -13.390
  -3.195        -13.386
  -3.193        -13.383
  -3.191        -13.380
  -3.189        -13.377
  -3.187        -13.374
  -3.184        -13.371
  -3.182        -13.368
  -3.180        -13.364
  -3.178        -13.361
  -3.176        -13.358
  -3.174        -13.355
  -3.171        -13.352
  -3.169        -13.349
  -3.167        -13.346
  -3.165        -13.343
  -3.163        -13.340
  -3.161        -13.337
  -3.158        -13.334
  -3.156        -13.331
  -3.154        -13.328
  -3.152        -13.325
  -3.150        -13.322
  -3.148        -13.318
  -3.145        -13.316
  -3.143        -13.312
  -3.141        -13.310
  -3.139        -13.307
  -3.137        -13.304
  -3.135        -13.301
  -3.132        -13.298
  -3.130        -13.295
  -3.128        -13.292
  -3.126        -13.289
  -3.124        -13.286
  -3.122        -13.283
  -3.119        -13.281
  -3.117        -13.277
  -3.115        -13.275
  -3.113        -13.272
  -3.111        -13.269
  -3.108        -13.266
  -3.106        -13.263
  -3.104        -13.260
  -3.102        -13.258
  -3.100        -13.255
  -3.098        -13.252
  -3.095        -13.249
  -3.093        -13.246
  -3.091        -13.244
  -3.089        -13.241
  -3.087        -13.238
  -3.085        -13.235
  -3.082        -13.233
  -3.080        -13.230
  -3.078        -13.227
  -3.076        -13.224
  -3.074        -13.222
  -3.072        -13.219
  -3.069        -13.216
  -3.067        -13.213
  -3.065        -13.211
  -3.063        -13.208
  -3.061        -13.206
  -3.059        -13.203
  -3.056        -13.200
  -3.054        -13.198
  -3.052        -13.195
  -3.050        -13.193
  -3.048        -13.190
  -3.046        -13.187
  -3.043        -13.185
  -3.041        -13.182
  -3.039        -13.180
  -3.037        -13.177
  -3.035        -13.175
  -3.032        -13.172
  -3.030        -13.170
  -3.028        -13.167
  -3.026        -13.164
  -3.024        -13.162
  -3.022        -13.160
  -3.019        -13.157
  -3.017        -13.155
  -3.015        -13.152
  -3.013        -13.150
  -3.011        -13.147
  -3.009        -13.145
  -3.006        -13.143
  -3.004        -13.140
  -3.002        -13.138
  -3.000        -13.136
  -2.998        -13.133
  -2.996        -13.131
  -2.993        -13.129
  -2.991        -13.126
  -2.989        -13.124
  -2.987        -13.122
  -2.985        -13.119
  -2.983        -13.117
  -2.980        -13.115
  -2.978        -13.113
  -2.976        -13.110
  -2.974        -13.108
  -2.972        -13.106
  -2.970        -13.104
  -2.967        -13.102
  -2.965        -13.100
  -2.963        -13.098
  -2.961        -13.095
  -2.959        -13.093
  -2.956        -13.091
  -2.954        -13.089
  -2.952        -13.087
  -2.950        -13.085
  -2.948        -13.083
  -2.946        -13.081
  -2.944        -13.079
  -2.941        -13.077
  -2.939        -13.075
  -2.937        -13.073
  -2.935        -13.071
  -2.933        -13.069
  -2.930        -13.067
  -2.928        -13.065
  -2.926        -13.063
  -2.924        -13.061
  -2.922        -13.059
  -2.920        -13.058
  -2.917        -13.056
  -2.915        -13.054
  -2.913        -13.052
  -2.911        -13.050
  -2.909        -13.048
  -2.907        -13.047
  -2.904        -13.045
  -2.902        -13.043
  -2.900        -13.042
  -2.898        -13.040
  -2.896        -13.038
  -2.894        -13.036
  -2.891        -13.035
  -2.889        -13.033
  -2.887        -13.032
  -2.885        -13.030
  -2.883        -13.028
  -2.880        -13.027
  -2.878        -13.025
  -2.876        -13.024
  -2.874        -13.022
  -2.872        -13.021
  -2.870        -13.019
  -2.867        -13.018
  -2.865        -13.016
  -2.863        -13.015
  -2.861        -13.013
  -2.859        -13.012
  -2.857        -13.011
  -2.855        -13.009
  -2.852        -13.008
  -2.850        -13.006
  -2.848        -13.005
  -2.846        -13.004
  -2.843        -13.003
  -2.842        -13.001
  -2.839        -13.000
  -2.837        -12.999
  -2.835        -12.998
  -2.833        -12.997
  -2.831        -12.995
  -2.828        -12.994
  -2.826        -12.993
  -2.824        -12.992
  -2.822        -12.991
  -2.820        -12.990
  -2.817        -12.989
  -2.815        -12.988
  -2.813        -12.987
  -2.811        -12.986
  -2.809        -12.985
  -2.807        -12.984
  -2.805        -12.983
  -2.802        -12.982
  -2.800        -12.981
  -2.798        -12.981
  -2.796        -12.980
  -2.794        -12.979
  -2.792        -12.978
  -2.789        -12.977
  -2.787        -12.977
  -2.785        -12.976
  -2.783        -12.975
  -2.781        -12.974
  -2.779        -12.974
  -2.776        -12.973
  -2.774        -12.972
  -2.772        -12.972
  -2.770        -12.971
  -2.767        -12.971
  -2.765        -12.970
  -2.763        -12.970
  -2.761        -12.969
  -2.759        -12.969
  -2.757        -12.968
  -2.754        -12.968
  -2.753        -12.967
  -2.750        -12.967
  -2.748        -12.967
  -2.746        -12.967
  -2.744        -12.966
  -2.741        -12.966
  -2.739        -12.966
  -2.737        -12.966
  -2.735        -12.965
  -2.733        -12.965
  -2.731        -12.965
  -2.729        -12.965
  -2.726        -12.965
  -2.724        -12.965
  -2.722        -12.965
  -2.720        -12.965
  -2.718        -12.965
  -2.716        -12.965
  -2.713        -12.965
  -2.711        -12.965
  -2.709        -12.965
  -2.707        -12.966
  -2.705        -12.966
  -2.703        -12.966
  -2.700        -12.966
  -2.698        -12.966
  -2.696        -12.967
  -2.694        -12.967
  -2.692        -12.968
  -2.689        -12.968
  -2.687        -12.968
  -2.685        -12.969
  -2.683        -12.969
  -2.681        -12.970
  -2.679        -12.970
  -2.677        -12.971
  -2.674        -12.972
  -2.672        -12.972
  -2.670        -12.973
  -2.668        -12.974
  -2.666        -12.974
  -2.663        -12.975
  -2.661        -12.976
  -2.659        -12.977
  -2.657        -12.978
  -2.655        -12.978
  -2.653        -12.979
  -2.650        -12.980
  -2.648        -12.981
  -2.646        -12.982
  -2.644        -12.983
  -2.642        -12.984
  -2.640        -12.986
  -2.637        -12.987
  -2.635        -12.988
  -2.633        -12.989
  -2.631        -12.990
  -2.629        -12.992
  -2.626        -12.993
  -2.624        -12.994
  -2.622        -12.996
  -2.620        -12.997
  -2.618        -12.999
  -2.616        -13.000
  -2.614        -13.002
  -2.611        -13.003
  -2.609        -13.005
  -2.607        -13.006
  -2.605        -13.008
  -2.603        -13.010
  -2.600        -13.012
  -2.598        -13.013
  -2.596        -13.015
  -2.594        -13.017
  -2.592        -13.019
  -2.590        -13.021
  -2.587        -13.023
  -2.585        -13.025
  -2.583        -13.027
  -2.581        -13.029
  -2.579        -13.031
  -2.577        -13.034
  -2.574        -13.036
  -2.572        -13.038
  -2.570        -13.040
  -2.568        -13.043
  -2.566        -13.045
  -2.564        -13.047
  -2.561        -13.050
  -2.559        -13.053
  -2.557        -13.055
  -2.555        -13.058
  -2.553        -13.060
  -2.551        -13.063
  -2.548        -13.066
  -2.546        -13.069
  -2.544        -13.071
  -2.542        -13.074
  -2.540        -13.077
  -2.538        -13.080
  -2.535        -13.083
  -2.533        -13.086
  -2.531        -13.089
  -2.529        -13.092
  -2.527        -13.096
  -2.525        -13.099
  -2.522        -13.102
  -2.520        -13.105
  -2.518        -13.109
  -2.516        -13.112
  -2.514        -13.115
  -2.511        -13.119
  -2.509        -13.123
  -2.507        -13.126
  -2.505        -13.130
  -2.503        -13.133
  -2.501        -13.137
  -2.498        -13.141
  -2.496        -13.145
  -2.494        -13.149
  -2.492        -13.153
  -2.490        -13.157
  -2.488        -13.161
  -2.485        -13.165
  -2.483        -13.169
  -2.481        -13.173
  -2.479        -13.177
  -2.477        -13.182
  -2.475        -13.186
  -2.472        -13.190
  -2.470        -13.195
  -2.468        -13.199
  -2.466        -13.204
  -2.464        -13.209
  -2.462        -13.213
  -2.459        -13.218
  -2.457        -13.223
  -2.455        -13.228
  -2.453        -13.233
  -2.451        -13.237
  -2.448        -13.242
  -2.446        -13.248
  -2.444        -13.253
  -2.442        -13.258
  -2.440        -13.263
  -2.438        -13.268
  -2.435        -13.274
  -2.433        -13.279
  -2.431        -13.285
  -2.429        -13.290
  -2.427        -13.296
  -2.425        -13.301
  -2.422        -13.307
  -2.420        -13.313
  -2.418        -13.318
  -2.416        -13.324
  -2.414        -13.330
  -2.412        -13.336
  -2.409        -13.342
  -2.407        -13.348
  -2.405        -13.355
  -2.403        -13.361
  -2.401        -13.367
  -2.398        -13.374
  -2.396        -13.380
  -2.394        -13.387
  -2.392        -13.393
  -2.390        -13.400
  -2.388        -13.406
  -2.386        -13.413
  -2.383        -13.420
  -2.381        -13.427
  -2.379        -13.434
  -2.377        -13.441
  -2.375        -13.448
  -2.372        -13.455
  -2.370        -13.462
  -2.368        -13.470
  -2.366        -13.477
  -2.364        -13.485
  -2.362        -13.492
  -2.359        -13.500
  -2.357        -13.507
  -2.355        -13.515
  -2.353        -13.523
  -2.351        -13.530
  -2.349        -13.538
  -2.346        -13.546
  -2.344        -13.555
  -2.342        -13.563
  -2.340        -13.571
  -2.338        -13.579
  -2.336        -13.588
  -2.333        -13.596
  -2.331        -13.604
  -2.329        -13.613
  -2.327        -13.622
  -2.325        -13.630
  -2.323        -13.639
  -2.320        -13.648
  -2.318        -13.657
  -2.316        -13.666
  -2.314        -13.675
  -2.312        -13.684
  -2.309        -13.694
  -2.307        -13.703
  -2.305        -13.713
  -2.303        -13.722
  -2.301        -13.732
  -2.299        -13.741
  -2.297        -13.751
  -2.294        -13.761
  -2.292        -13.771
  -2.290        -13.781
  -2.288        -13.791
  -2.286        -13.801
  -2.283        -13.811
  -2.281        -13.822
  -2.279        -13.832
  -2.277        -13.842
  -2.275        -13.853
  -2.273        -13.864
  -2.270        -13.875
  -2.268        -13.885
  -2.266        -13.896
  -2.264        -13.907
  -2.262        -13.918
  -2.260        -13.929
  -2.257        -13.941
  -2.255        -13.952
  -2.253        -13.964
  -2.251        -13.975
  -2.249        -13.987
  -2.247        -13.999
  -2.244        -14.010
  -2.242        -14.022
  -2.240        -14.034
  -2.238        -14.046
  -2.236        -14.059
  -2.234        -14.071
  -2.231        -14.083
  -2.229        -14.096
  -2.227        -14.108
  -2.225        -14.121
  -2.223        -14.133
  -2.220        -14.147
  -2.218        -14.160
  -2.216        -14.172
  -2.214        -14.186
  -2.212        -14.199
  -2.210        -14.212
  -2.207        -14.226
  -2.205        -14.239
  -2.203        -14.253
  -2.201        -14.267
  -2.199        -14.280
  -2.197        -14.294
  -2.194        -14.308
  -2.192        -14.323
  -2.190        -14.337
  -2.188        -14.351
  -2.186        -14.366
  -2.184        -14.380
  -2.181        -14.395
  -2.179        -14.410
  -2.177        -14.425
  -2.175        -14.440
  -2.173        -14.455
  -2.171        -14.470
  -2.168        -14.485
  -2.166        -14.501
  -2.164        -14.516
  -2.162        -14.532
  -2.160        -14.548
  -2.158        -14.563
  -2.155        -14.579
  -2.153        -14.596
  -2.151        -14.612
  -2.149        -14.628
  -2.147        -14.645
  -2.145        -14.661
  -2.142        -14.678
  -2.140        -14.694
  -2.138        -14.711
  -2.136        -14.728
  -2.134        -14.745
  -2.131        -14.763
  -2.129        -14.780
  -2.127        -14.798
  -2.125        -14.815
  -2.123        -14.833
  -2.121        -14.851
  -2.118        -14.869
  -2.116        -14.887
  -2.114        -14.905
  -2.112        -14.924
  -2.110        -14.942
  -2.108        -14.961
  -2.105        -14.979
  -2.103        -14.998
  -2.101        -15.017
  -2.099        -15.036
  -2.097        -15.055
  -2.095        -15.075
  -2.092        -15.094
  -2.090        -15.114
  -2.088        -15.134
  -2.086        -15.153
  -2.084        -15.174
  -2.082        -15.194
  -2.079        -15.214
  -2.077        -15.234
  -2.075        -15.255
  -2.073        -15.276
  -2.071        -15.296
  -2.069        -15.318
  -2.066        -15.339
  -2.064        -15.360
  -2.062        -15.381
  -2.060        -15.402
  -2.058        -15.424
  -2.056        -15.446
  -2.053        -15.468
  -2.051        -15.490
  -2.049        -15.512
  -2.047        -15.535
  -2.045        -15.557
  -2.043        -15.580
  -2.040        -15.603
  -2.038        -15.625
  -2.036        -15.649
  -2.034        -15.672
  -2.032        -15.695
  -2.029        -15.719
  -2.027        -15.742
  -2.025        -15.766
  -2.023        -15.790
  -2.021        -15.814
  -2.019        -15.839
  -2.016        -15.863
  -2.014        -15.888
  -2.012        -15.912
  -2.010        -15.937
  -2.008        -15.962
  -2.006        -15.987
  -2.003        -16.013
  -2.001        -16.038
  -1.999        -16.064
  -1.997        -16.090
  -1.995        -16.116
  -1.993        -16.142
  -1.990        -16.168
  -1.988        -16.195
  -1.986        -16.221
  -1.984        -16.248
  -1.982        -16.275
  -1.980        -16.302
  -1.977        -16.329
  -1.975        -16.357
  -1.973        -16.384
  -1.971        -16.412
  -1.969        -16.440
  -1.967        -16.468
  -1.964        -16.496
  -1.962        -16.525
  -1.960        -16.553
  -1.958        -16.582
  -1.956        -16.611
  -1.953        -16.640
  -1.951        -16.669
  -1.949        -16.698
  -1.947        -16.728
  -1.945        -16.758
  -1.943        -16.787
  -1.940        -16.817
  -1.938        -16.848
  -1.936        -16.878
  -1.934        -16.908
  -1.932        -16.939
  -1.930        -16.970
  -1.927        -17.000
  -1.925        -17.032
  -1.923        -17.063
  -1.921        -17.094
  -1.919        -17.126
  -1.917        -17.157
  -1.914        -17.189
  -1.912        -17.221
  -1.910        -17.252
  -1.908        -17.285
  -1.906        -17.317
  -1.904        -17.349
  -1.901        -17.381
  -1.899        -17.414
  -1.897        -17.446
  -1.895        -17.479
  -1.893        -17.511
  -1.891        -17.544
  -1.888        -17.576
  -1.886        -17.609
  -1.884        -17.642
  -1.882        -17.674
  -1.880        -17.707
  -1.877        -17.739
  -1.875        -17.771
  -1.873        -17.803
  -1.871        -17.835
  -1.869        -17.868
  -1.867        -17.899
  -1.864        -17.931
  -1.862        -17.962
  -1.860        -17.993
  -1.858        -18.024
  -1.856        -18.054
  -1.853        -18.084
  -1.851        -18.114
  -1.849        -18.142
  -1.847        -18.171
  -1.845        -18.199
  -1.843        -18.227
  -1.841        -18.253
  -1.838        -18.280
  -1.836        -18.305
  -1.834        -18.330
  -1.832        -18.354
  -1.830        -18.377
  -1.828        -18.400
  -1.825        -18.422
  -1.823        -18.443
  -1.821        -18.462
  -1.819        -18.482
  -1.817        -18.500
  -1.815        -18.517
  -1.812        -18.534
  -1.810        -18.549
  -1.808        -18.564
  -1.806        -18.578
  -1.804        -18.591
  -1.801        -18.603
  -1.799        -18.615
  -1.797        -18.626
  -1.795        -18.636
  -1.793        -18.646
  -1.791        -18.655
  -1.788        -18.663
  -1.786        -18.670
  -1.784        -18.678
  -1.782        -18.684
  -1.780        -18.690
  -1.777        -18.696
  -1.775        -18.701
  -1.773        -18.706
  -1.771        -18.710
  -1.769        -18.715
  -1.767        -18.718
  -1.764        -18.722
  -1.763        -18.725
  -1.760        -18.728
  -1.758        -18.731
  -1.756        -18.734
  -1.754        -18.736
  -1.752        -18.739
  -1.749        -18.741
  -1.747        -18.743
  -1.745        -18.745
  -1.743        -18.747
  -1.741        -18.748
  -1.739        -18.750
  -1.736        -18.752
  -1.734        -18.753
  -1.732        -18.755
  -1.730        -18.756
  -1.728        -18.757
  -1.726        -18.759
  -1.723        -18.760
  -1.721        -18.761
  -1.719        -18.762
  -1.717        -18.763
  -1.715        -18.765
  -1.713        -18.765
  -1.710        -18.766
  -1.708        -18.768
  -1.706        -18.769
  -1.704        -18.769
  -1.702        -18.770
  -1.699        -18.771
  -1.697        -18.772
  -1.695        -18.773
  -1.693        -18.774
  -1.691        -18.775
  -1.689        -18.776
  -1.686        -18.777
  -1.684        -18.778
  -1.682        -18.778
  -1.680        -18.779
  -1.678        -18.780
  -1.675        -18.781
  -1.673        -18.782
  -1.671        -18.783
  -1.669        -18.784
  -1.667        -18.785
  -1.665        -18.786
  -1.663        -18.787
  -1.660        -18.787
  -1.658        -18.788
  -1.656        -18.789
  -1.654        -18.790
  -1.652        -18.791
  -1.650        -18.792
  -1.647        -18.793
  -1.645        -18.793
  -1.643        -18.794
  -1.641        -18.795
  -1.639        -18.796
  -1.637        -18.797
  -1.634        -18.797
  -1.632        -18.799
  -1.630        -18.799
  -1.628        -18.800
  -1.626        -18.801
  -1.623        -18.802
  -1.621        -18.803
  -1.619        -18.804
  -1.617        -18.804
  -1.615        -18.805
  -1.613        -18.806
  -1.611        -18.807
  -1.608        -18.808
  -1.606        -18.809
  -1.604        -18.809
  -1.602        -18.810
  -1.600        -18.811
  -1.597        -18.812
  -1.595        -18.813
  -1.593        -18.814
  -1.591        -18.815
  -1.589        -18.815
  -1.587        -18.816
  -1.584        -18.817
  -1.582        -18.818
  -1.580        -18.819
  -1.578        -18.819
  -1.576        -18.821
  -1.573        -18.821
  -1.571        -18.822
  -1.569        -18.823
  -1.567        -18.824
  -1.565        -18.825
  -1.563        -18.826
  -1.561        -18.826
  -1.558        -18.827
  -1.556        -18.828
  -1.554        -18.829
  -1.552        -18.830
  -1.550        -18.831
  -1.547        -18.831
  -1.545        -18.832
  -1.543        -18.833
  -1.541        -18.834
  -1.539        -18.835
  -1.537        -18.836
  -1.534        -18.837
  -1.532        -18.837
  -1.530        -18.838
  -1.528        -18.839
  -1.526        -18.840
  -1.524        -18.841
  -1.522        -18.842
  -1.519        -18.843
  -1.517        -18.843
  -1.515        -18.844
  -1.513        -18.845
  -1.511        -18.846
  -1.508        -18.847
  -1.506        -18.848
  -1.504        -18.849
  -1.502        -18.849
  -1.500        -18.850
  -1.498        -18.851
  -1.495        -18.852
  -1.493        -18.853
  -1.491        -18.854
  -1.489        -18.854
  -1.487        -18.855
  -1.484        -18.856
  -1.482        -18.857
  -1.480        -18.858
  -1.478        -18.859
  -1.476        -18.859
  -1.474        -18.860
  -1.472        -18.861
  -1.469        -18.862
  -1.467        -18.863
  -1.465        -18.863
  -1.463        -18.864
  -1.461        -18.865
  -1.458        -18.866
  -1.456        -18.867
  -1.454        -18.867
  -1.452        -18.868
  -1.450        -18.869
  -1.448        -18.870
  -1.445        -18.871
  -1.443        -18.872
  -1.441        -18.873
  -1.439        -18.874
  -1.437        -18.874
  -1.435        -18.875
  -1.432        -18.876
  -1.430        -18.877
  -1.428        -18.878
  -1.426        -18.879
  -1.424        -18.879
  -1.422        -18.880
  -1.419        -18.881
  -1.417        -18.882
  -1.415        -18.883
  -1.413        -18.883
  -1.411        -18.884
  -1.409        -18.885
  -1.406        -18.886
  -1.404        -18.887
  -1.402        -18.888
  -1.400        -18.889
  -1.398        -18.889
  -1.396        -18.890
  -1.393        -18.891
  -1.391        -18.892
  -1.389        -18.893
  -1.387        -18.894
  -1.385        -18.894
  -1.383        -18.895
  -1.380        -18.896
  -1.378        -18.897
  -1.376        -18.898
  -1.374        -18.899
  -1.372        -18.900
  -1.370        -18.900
  -1.367        -18.901
  -1.365        -18.902
  -1.363        -18.903
  -1.361        -18.904
  -1.359        -18.905
  -1.356        -18.906
  -1.354        -18.906
  -1.352        -18.907
  -1.350        -18.908
  -1.348        -18.909
  -1.346        -18.910
  -1.343        -18.911
  -1.341        -18.911
  -1.339        -18.912
  -1.337        -18.913
  -1.335        -18.914
  -1.333        -18.915
  -1.330        -18.916
  -1.328        -18.917
  -1.326        -18.918
  -1.324        -18.918
  -1.322        -18.919
  -1.320        -18.920
  -1.317        -18.921
  -1.315        -18.922
  -1.313        -18.922
  -1.311        -18.923
  -1.309        -18.924
  -1.307        -18.925
  -1.304        -18.926
  -1.302        -18.927
  -1.300        -18.928
  -1.298        -18.928
  -1.296        -18.929
  -1.293        -18.930
  -1.291        -18.931
  -1.289        -18.932
  -1.287        -18.933
  -1.285        -18.934
  -1.283        -18.935
  -1.280        -18.936
  -1.278        -18.937
  -1.276        -18.937
  -1.274        -18.938
  -1.272        -18.939
  -1.270        -18.940
  -1.267        -18.941
  -1.265        -18.942
  -1.263        -18.943
  -1.261        -18.944
  -1.259        -18.945
  -1.257        -18.946
  -1.254        -18.946
  -1.252        -18.947
  -1.250        -18.948
  -1.248        -18.949
  -1.246        -18.950
  -1.243        -18.951
  -1.241        -18.952
  -1.239        -18.953
  -1.237        -18.954
  -1.235        -18.954
  -1.233        -18.956
  -1.231        -18.956
  -1.228        -18.957
  -1.226        -18.958
  -1.224        -18.959
  -1.222        -18.960
  -1.220        -18.961
  -1.217        -18.962
  -1.215        -18.963
  -1.213        -18.964
  -1.211        -18.965
  -1.209        -18.966
  -1.207        -18.967
  -1.204        -18.968
  -1.202        -18.969
  -1.200        -18.970
  -1.198        -18.971
  -1.196        -18.972
  -1.194        -18.973
  -1.191        -18.974
  -1.189        -18.975
  -1.187        -18.976
  -1.185        -18.977
  -1.183        -18.978
  -1.181        -18.979
  -1.178        -18.980
  -1.176        -18.981
  -1.174        -18.982
  -1.172        -18.984
  -1.170        -18.985
  -1.168        -18.986
  -1.165        -18.987
  -1.163        -18.988
  -1.161        -18.989
  -1.159        -18.990
  -1.157        -18.991
  -1.155        -18.992
  -1.152        -18.993
  -1.150        -18.995
  -1.148        -18.996
  -1.146        -18.997
  -1.144        -18.998
  -1.142        -18.999
  -1.139        -19.001
  -1.137        -19.002
  -1.135        -19.003
  -1.133        -19.004
  -1.131        -19.005
  -1.129        -19.007
  -1.126        -19.008
  -1.124        -19.009
  -1.122        -19.010
  -1.120        -19.012
  -1.118        -19.013
  -1.115        -19.014
  -1.113        -19.016
  -1.111        -19.017
  -1.109        -19.018
  -1.107        -19.020
  -1.105        -19.021
  -1.102        -19.022
  -1.100        -19.024
  -1.098        -19.025
  -1.096        -19.027
  -1.094        -19.028
  -1.092        -19.030
  -1.089        -19.031
  -1.087        -19.032
  -1.085        -19.034
  -1.083        -19.035
  -1.081        -19.037
  -1.079        -19.038
  -1.076        -19.040
  -1.074        -19.041
  -1.072        -19.043
  -1.070        -19.045
  -1.068        -19.046
  -1.066        -19.048
  -1.063        -19.050
  -1.061        -19.051
  -1.059        -19.053
  -1.057        -19.054
  -1.055        -19.056
  -1.052        -19.058
  -1.050        -19.060
  -1.048        -19.061
  -1.046        -19.063
  -1.044        -19.065
  -1.042        -19.067
  -1.039        -19.069
  -1.037        -19.071
  -1.035        -19.073
  -1.033        -19.074
  -1.031        -19.076
  -1.029        -19.078
  -1.026        -19.080
  -1.024        -19.082
  -1.022        -19.085
  -1.020        -19.087
  -1.018        -19.089
  -1.016        -19.090
  -1.013        -19.093
  -1.011        -19.095
  -1.009        -19.097
  -1.007        -19.099
  -1.005        -19.101
  -1.003        -19.103
  -1.000        -19.105
  -0.998        -19.108
  -0.996        -19.110
  -0.994        -19.112
  -0.992        -19.114
  -0.990        -19.116
  -0.987        -19.118
  -0.985        -19.121
  -0.983        -19.123
  -0.981        -19.125
  -0.979        -19.127
  -0.977        -19.129
  -0.974        -19.131
  -0.972        -19.133
  -0.970        -19.135
  -0.968        -19.137
  -0.966        -19.139
  -0.963        -19.142
  -0.961        -19.143
  -0.959        -19.145
  -0.957        -19.148
  -0.955        -19.150
  -0.953        -19.152
  -0.950        -19.154
  -0.948        -19.156
  -0.946        -19.158
  -0.944        -19.160
  -0.942        -19.162
  -0.940        -19.164
  -0.937        -19.165
  -0.935        -19.167
  -0.933        -19.169
  -0.931        -19.171
  -0.929        -19.173
  -0.927        -19.175
  -0.924        -19.177
  -0.922        -19.179
  -0.920        -19.180
  -0.918        -19.182
  -0.916        -19.184
  -0.914        -19.186
  -0.911        -19.188
  -0.909        -19.189
  -0.907        -19.191
  -0.905        -19.193
  -0.903        -19.195
  -0.900        -19.196
  -0.898        -19.198
  -0.896        -19.200
  -0.894        -19.201
  -0.892        -19.203
  -0.890        -19.205
  -0.887        -19.206
  -0.885        -19.208
  -0.883        -19.210
  -0.881        -19.211
  -0.879        -19.213
  -0.877        -19.214
  -0.874        -19.216
  -0.872        -19.218
  -0.870        -19.219
  -0.868        -19.221
  -0.866        -19.222
  -0.864        -19.224
  -0.862        -19.225
  -0.859        -19.227
  -0.857        -19.228
  -0.855        -19.229
  -0.853        -19.231
  -0.851        -19.232
  -0.848        -19.234
  -0.846        -19.235
  -0.844        -19.237
  -0.842        -19.238
  -0.840        -19.239
  -0.838        -19.240
  -0.835        -19.242
  -0.833        -19.243
  -0.831        -19.244
  -0.829        -19.245
  -0.827        -19.246
  -0.825        -19.248
  -0.822        -19.249
  -0.820        -19.250
  -0.818        -19.251
  -0.816        -19.252
  -0.814        -19.253
  -0.812        -19.254
  -0.809        -19.255
  -0.807        -19.256
  -0.805        -19.257
  -0.803        -19.258
  -0.801        -19.259
  -0.799        -19.260
  -0.796        -19.261
  -0.794        -19.262
  -0.792        -19.262
  -0.790        -19.263
  -0.788        -19.264
  -0.785        -19.265
  -0.783        -19.266
  -0.781        -19.266
  -0.779        -19.267
  -0.777        -19.268
  -0.774        -19.269
  -0.772        -19.269
  -0.770        -19.270
  -0.768        -19.270
  -0.766        -19.271
  -0.764        -19.272
  -0.762        -19.272
  -0.759        -19.273
  -0.757        -19.273
  -0.755        -19.274
  -0.753        -19.274
  -0.751        -19.275
  -0.748        -19.275
  -0.746        -19.276
  -0.744        -19.276
  -0.742        -19.277
  -0.740        -19.277
  -0.738        -19.277
  -0.736        -19.278
  -0.733        -19.278
  -0.731        -19.278
  -0.729        -19.278
  -0.727        -19.279
  -0.725        -19.279
  -0.723        -19.279
  -0.720        -19.279
  -0.718        -19.280
  -0.716        -19.279
  -0.714        -19.280
  -0.712        -19.279
  -0.709        -19.280
  -0.707        -19.279
  -0.705        -19.280
  -0.703        -19.279
  -0.701        -19.280
  -0.699        -19.280
  -0.697        -19.279
  -0.694        -19.279
  -0.692        -19.279
  -0.690        -19.279
  -0.688        -19.279
  -0.685        -19.279
  -0.683        -19.279
  -0.681        -19.278
  -0.679        -19.278
  -0.677        -19.278
  -0.675        -19.278
  -0.673        -19.277
  -0.670        -19.277
  -0.668        -19.277
  -0.666        -19.277
  -0.664        -19.276
  -0.662        -19.276
  -0.659        -19.275
  -0.657        -19.275
  -0.655        -19.275
  -0.653        -19.274
  -0.651        -19.274
  -0.649        -19.273
  -0.647        -19.273
  -0.644        -19.272
  -0.642        -19.272
  -0.640        -19.271
  -0.638        -19.271
  -0.636        -19.270
  -0.633        -19.270
  -0.631        -19.269
  -0.629        -19.269
  -0.627        -19.268
  -0.625        -19.267
  -0.623        -19.267
  -0.621        -19.266
  -0.618        -19.266
  -0.616        -19.265
  -0.614        -19.264
  -0.612        -19.264
  -0.610        -19.263
  -0.608        -19.262
  -0.605        -19.262
  -0.603        -19.261
  -0.601        -19.260
  -0.599        -19.259
  -0.596        -19.259
  -0.594        -19.258
  -0.592        -19.257
  -0.590        -19.256
  -0.588        -19.255
  -0.586        -19.255
  -0.584        -19.254
  -0.581        -19.253
  -0.579        -19.252
  -0.577        -19.251
  -0.575        -19.250
  -0.573        -19.249
  -0.571        -19.249
  -0.568        -19.248
  -0.566        -19.247
  -0.564        -19.246
  -0.562        -19.245
  -0.560        -19.244
  -0.557        -19.243
  -0.555        -19.243
  -0.553        -19.242
  -0.551        -19.241
  -0.549        -19.240
  -0.547        -19.239
  -0.544        -19.238
  -0.542        -19.237
  -0.540        -19.236
  -0.538        -19.235
  -0.536        -19.235
  -0.534        -19.234
  -0.531        -19.233
  -0.529        -19.232
  -0.527        -19.231
  -0.525        -19.230
  -0.523        -19.229
  -0.521        -19.228
  -0.518        -19.227
  -0.516        -19.226
  -0.514        -19.225
  -0.512        -19.224
  -0.510        -19.224
  -0.507        -19.223
  -0.505        -19.222
  -0.503        -19.221
  -0.501        -19.220
  -0.499        -19.219
  -0.497        -19.218
  -0.495        -19.217
  -0.492        -19.216
  -0.490        -19.215
  -0.488        -19.214
  -0.486        -19.213
  -0.484        -19.212
  -0.482        -19.211
  -0.479        -19.210
  -0.477        -19.209
  -0.475        -19.208
  -0.473        -19.207
  -0.471        -19.206
  -0.468        -19.205
  -0.466        -19.204
  -0.464        -19.203
  -0.462        -19.202
  -0.460        -19.201
  -0.458        -19.200
  -0.455        -19.199
  -0.453        -19.198
  -0.451        -19.197
  -0.449        -19.196
  -0.447        -19.195
  -0.445        -19.194
  -0.442        -19.193
  -0.440        -19.192
  -0.438        -19.190
  -0.436        -19.189
  -0.434        -19.188
  -0.432        -19.188
  -0.429        -19.186
  -0.427        -19.185
  -0.425        -19.184
  -0.423        -19.183
  -0.421        -19.182
  -0.419        -19.181
  -0.416        -19.180
  -0.414        -19.179
  -0.412        -19.178
  -0.410        -19.177
  -0.408        -19.176
  -0.405        -19.175
  -0.403        -19.174
  -0.401        -19.173
  -0.399        -19.172
  -0.397        -19.171
  -0.395        -19.170
  -0.392        -19.169
  -0.390        -19.168
  -0.388        -19.167
  -0.386        -19.166
  -0.384        -19.165
  -0.382        -19.164
  -0.379        -19.162
  -0.377        -19.161
  -0.375        -19.160
  -0.373        -19.159
  -0.371        -19.158
  -0.369        -19.157
  -0.366        -19.156
  -0.364        -19.155
  -0.362        -19.154
  -0.360        -19.153
  -0.358        -19.152
  -0.356        -19.150
  -0.353        -19.149
  -0.351        -19.148
  -0.349        -19.147
  -0.347        -19.146
  -0.345        -19.145
  -0.343        -19.144
  -0.340        -19.143
  -0.338        -19.141
  -0.336        -19.141
  -0.334        -19.139
  -0.332        -19.138
  -0.330        -19.137
  -0.327        -19.136
  -0.325        -19.135
  -0.323        -19.133
  -0.321        -19.132
  -0.319        -19.131
  -0.316        -19.130
  -0.314        -19.129
  -0.312        -19.128
  -0.310        -19.127
  -0.308        -19.126
  -0.306        -19.125
  -0.303        -19.124
  -0.301        -19.123
  -0.299        -19.122
  -0.297        -19.122
  -0.295        -19.121
  -0.293        -19.120
  -0.290        -19.119
  -0.288        -19.119
  -0.286        -19.118
  -0.284        -19.117
  -0.282        -19.116
  -0.280        -19.116
  -0.277        -19.115
  -0.275        -19.114
  -0.273        -19.114
  -0.271        -19.113
  -0.269        -19.113
  -0.267        -19.112
  -0.264        -19.111
  -0.262        -19.111
  -0.260        -19.110
  -0.258        -19.110
  -0.256        -19.110
  -0.253        -19.109
  -0.251        -19.109
  -0.249        -19.108
  -0.247        -19.108
  -0.245        -19.107
  -0.243        -19.107
  -0.241        -19.106
  -0.238        -19.106
  -0.236        -19.106
  -0.234        -19.105
  -0.232        -19.105
  -0.230        -19.104
  -0.227        -19.104
  -0.225        -19.104
  -0.223        -19.104
  -0.221        -19.103
  -0.219        -19.103
  -0.217        -19.103
  -0.214        -19.102
  -0.212        -19.102
  -0.210        -19.102
  -0.208        -19.102
  -0.206        -19.102
  -0.204        -19.101
  -0.201        -19.101
  -0.199        -19.101
  -0.197        -19.101
  -0.195        -19.101
  -0.193        -19.101
  -0.191        -19.101
  -0.188        -19.101
  -0.186        -19.101
  -0.184        -19.101
  -0.182        -19.101
  -0.180        -19.101
  -0.178        -19.101
  -0.175        -19.101
  -0.173        -19.101
  -0.171        -19.101
  -0.169        -19.102
  -0.167        -19.102
  -0.164        -19.102
  -0.162        -19.102
  -0.160        -19.102
  -0.158        -19.102
  -0.156        -19.103
  -0.154        -19.103
  -0.151        -19.104
  -0.149        -19.104
  -0.147        -19.104
  -0.145        -19.105
  -0.143        -19.105
  -0.141        -19.105
  -0.138        -19.106
  -0.136        -19.106
  -0.134        -19.106
  -0.132        -19.107
  -0.130        -19.107
  -0.128        -19.107
  -0.125        -19.108
  -0.123        -19.108
  -0.121        -19.108
  -0.119        -19.109
  -0.117        -19.109
  -0.115        -19.109
  -0.112        -19.110
  -0.110        -19.110
  -0.108        -19.110
  -0.106        -19.111
  -0.104        -19.111
  -0.102        -19.111
  -0.099        -19.111
  -0.097        -19.111
  -0.095        -19.112
  -0.093        -19.112
  -0.091        -19.112
  -0.089        -19.112
  -0.086        -19.112
  -0.084        -19.112
  -0.082        -19.112
  -0.080        -19.113
  -0.078        -19.112
  -0.075        -19.113
  -0.073        -19.113
  -0.071        -19.113
  -0.069        -19.113
  -0.067        -19.113
  -0.065        -19.113
  -0.063        -19.113
  -0.060        -19.114
  -0.058        -19.114
  -0.056        -19.114
  -0.054        -19.114
  -0.052        -19.114
  -0.049        -19.114
  -0.047        -19.115
  -0.045        -19.115
  -0.043        -19.115
  -0.041        -19.116
  -0.039        -19.116
  -0.036        -19.116
  -0.034        -19.116
  -0.032        -19.117
  -0.030        -19.117
  -0.028        -19.117
  -0.026        -19.118
  -0.023        -19.118
  -0.021        -19.119
  -0.019        -19.119
  -0.017        -19.119
  -0.015        -19.120
  -0.013        -19.120
  -0.010        -19.121
  -0.008        -19.121
  -0.006        -19.121
  -0.004        -19.122
  -0.002        -19.122
   0.000        -19.122
   0.003        -19.123
   0.005        -19.123
   0.007        -19.123
   0.009        -19.124
   0.011        -19.124
   0.013        -19.125
   0.016        -19.125
   0.018        -19.125
   0.020        -19.126
   0.022        -19.126
   0.024        -19.127
   0.027        -19.127
   0.029        -19.127
   0.031        -19.128
   0.033        -19.128
   0.035        -19.129
   0.037        -19.129
   0.040        -19.130
   0.042        -19.130
   0.044        -19.130
   0.046        -19.131
   0.048        -19.131
   0.050        -19.132
   0.053        -19.132
   0.055        -19.133
   0.057        -19.133
   0.059        -19.134
   0.061        -19.134
   0.063        -19.134
   0.066        -19.135
   0.068        -19.135
   0.070        -19.136
   0.072        -19.136
   0.074        -19.136
   0.076        -19.137
   0.079        -19.137
   0.081        -19.137
   0.083        -19.138
   0.085        -19.138
   0.087        -19.138
   0.089        -19.139
   0.092        -19.139
   0.094        -19.140
   0.096        -19.140
   0.098        -19.140
   0.100        -19.141
   0.103        -19.141
   0.105        -19.142
   0.107        -19.142
   0.109        -19.142
   0.111        -19.143
   0.113        -19.143
   0.116        -19.144
   0.118        -19.144
   0.120        -19.145
   0.122        -19.145
   0.124        -19.146
   0.126        -19.146
   0.128        -19.146
   0.131        -19.147
   0.133        -19.148
   0.135        -19.148
   0.137        -19.148
   0.139        -19.148
   0.142        -19.149
   0.144        -19.149
   0.146        -19.150
   0.148        -19.150
   0.150        -19.150
   0.153        -19.151
   0.155        -19.151
   0.157        -19.152
   0.159        -19.152
   0.161        -19.153
   0.163        -19.153
   0.165        -19.153
   0.168        -19.154
   0.170        -19.154
   0.172        -19.154
   0.174        -19.155
   0.176        -19.155
   0.178        -19.156
   0.181        -19.156
   0.183        -19.156
   0.185        -19.157
   0.187        -19.157
   0.189        -19.158
   0.192        -19.158
   0.194        -19.159
   0.196        -19.159
   0.198        -19.159
   0.200        -19.160
   0.202        -19.160
   0.205        -19.161
   0.207        -19.161
   0.209        -19.161
   0.211        -19.162
   0.213        -19.162
   0.215        -19.163
   0.218        -19.163
   0.220        -19.164
   0.222        -19.164
   0.224        -19.165
   0.226        -19.165
   0.229        -19.166
   0.231        -19.166
   0.233        -19.167
   0.235        -19.167
   0.237        -19.168
   0.239        -19.168
   0.241        -19.168
   0.244        -19.169
   0.246        -19.170
   0.248        -19.170
   0.250        -19.171
   0.252        -19.171
   0.254        -19.172
   0.257        -19.172
   0.259        -19.173
   0.261        -19.173
   0.263        -19.174
   0.265        -19.175
   0.267        -19.175
   0.270        -19.176
   0.272        -19.176
   0.274        -19.177
   0.276        -19.177
   0.278        -19.178
   0.281        -19.179
   0.283        -19.179
   0.285        -19.180
   0.287        -19.181
   0.289        -19.181
   0.291        -19.182
   0.293        -19.183
   0.296        -19.183
   0.298        -19.184
   0.300        -19.185
   0.302        -19.185
   0.305        -19.186
   0.307        -19.187
   0.309        -19.188
   0.311        -19.189
   0.313        -19.189
   0.315        -19.190
   0.318        -19.191
   0.320        -19.192
   0.322        -19.192
   0.324        -19.193
   0.326        -19.194
   0.328        -19.195
   0.330        -19.196
   0.333        -19.197
   0.335        -19.198
   0.337        -19.198
   0.339        -19.199
   0.341        -19.200
   0.344        -19.201
   0.346        -19.202
   0.348        -19.203
   0.350        -19.204
   0.352        -19.205
   0.354        -19.206
   0.356        -19.207
   0.359        -19.208
   0.361        -19.209
   0.363        -19.210
   0.365        -19.210
   0.367        -19.211
   0.369        -19.212
   0.372        -19.213
   0.374        -19.214
   0.376        -19.215
   0.378        -19.216
   0.380        -19.217
   0.383        -19.218
   0.385        -19.219
   0.387        -19.220
   0.389        -19.221
   0.391        -19.222
   0.393        -19.223
   0.396        -19.224
   0.398        -19.225
   0.400        -19.227
   0.402        -19.228
   0.404        -19.229
   0.406        -19.230
   0.409        -19.231
   0.411        -19.233
   0.413        -19.234
   0.415        -19.235
   0.417        -19.237
   0.420        -19.238
   0.422        -19.239
   0.424        -19.241
   0.426        -19.242
   0.428        -19.244
   0.430        -19.245
   0.432        -19.247
   0.435        -19.249
   0.437        -19.250
   0.439        -19.252
   0.441        -19.253
   0.443        -19.255
   0.446        -19.257
   0.448        -19.259
   0.450        -19.260
   0.452        -19.262
   0.454        -19.264
   0.456        -19.266
   0.459        -19.268
   0.461        -19.270
   0.463        -19.272
   0.465        -19.274
   0.467        -19.276
   0.469        -19.277
   0.472        -19.279
   0.474        -19.281
   0.476        -19.282
   0.478        -19.284
   0.480        -19.286
   0.482        -19.287
   0.485        -19.289
   0.487        -19.291
   0.489        -19.292
   0.491        -19.293
   0.493        -19.293
   0.495        -19.294
   0.498        -19.294
   0.500        -19.294
   0.502        -19.295
   0.504        -19.295
   0.506        -19.296
   0.510        -19.296
   0.512        -19.296
   0.513        -19.296
   0.515        -19.295
   0.517        -19.295
   0.519        -19.294
   0.522        -19.294
   0.524        -19.294
   0.526        -19.293
   0.528        -19.293
   0.530        -19.293
   0.532        -19.292
   0.535        -19.292
   0.537        -19.292
   0.539        -19.291
   0.541        -19.291
   0.543        -19.291
   0.545        -19.291
   0.548        -19.290
   0.550        -19.290
   0.552        -19.290
   0.554        -19.290
   0.556        -19.290
   0.558        -19.290
   0.561        -19.290
   0.563        -19.290
   0.565        -19.291
   0.567        -19.291
   0.569        -19.291
   0.572        -19.291
   0.574        -19.291
   0.576        -19.291
   0.578        -19.292
   0.580        -19.292
   0.582        -19.292
   0.585        -19.293
   0.587        -19.293
   0.589        -19.293
   0.591        -19.294
   0.593        -19.294
   0.595        -19.294
   0.598        -19.295
   0.600        -19.295
   0.602        -19.295
   0.604        -19.296
   0.606        -19.296
   0.608        -19.296
   0.611        -19.297
   0.613        -19.297
   0.615        -19.297
   0.617        -19.298
   0.619        -19.298
   0.621        -19.298
   0.624        -19.299
   0.626        -19.299
   0.628        -19.300
   0.630        -19.300
   0.632        -19.300
   0.634        -19.301
   0.637        -19.301
   0.639        -19.301
   0.641        -19.302
   0.643        -19.302
   0.645        -19.303
   0.647        -19.303
   0.650        -19.303
   0.652        -19.304
   0.654        -19.304
   0.656        -19.304
   0.658        -19.305
   0.660        -19.305
   0.663        -19.306
   0.665        -19.306
   0.667        -19.307
   0.669        -19.307
   0.671        -19.307
   0.673        -19.308
   0.676        -19.308
   0.678        -19.309
   0.680        -19.309
   0.682        -19.310
   0.684        -19.310
   0.687        -19.311
   0.689        -19.311
   0.691        -19.312
   0.693        -19.312
   0.695        -19.313
   0.697        -19.313
   0.700        -19.314
   0.702        -19.315
   0.704        -19.316
   0.706        -19.316
   0.708        -19.317
   0.710        -19.318
   0.713        -19.319
   0.715        -19.319
   0.717        -19.320
   0.719        -19.321
   0.721        -19.322
   0.723        -19.323
   0.726        -19.324
   0.728        -19.325
   0.730        -19.326
   0.732        -19.327
   0.734        -19.328
   0.736        -19.329
   0.739        -19.330
   0.741        -19.331
   0.743        -19.332
   0.745        -19.333
   0.747        -19.334
   0.750        -19.335
   0.752        -19.336
   0.754        -19.337
   0.756        -19.339
   0.758        -19.340
   0.760        -19.341
   0.762        -19.342
   0.765        -19.343
   0.767        -19.344
   0.769        -19.346
   0.771        -19.347
   0.773        -19.348
   0.776        -19.349
   0.778        -19.351
   0.780        -19.352
   0.782        -19.353
   0.784        -19.355
   0.786        -19.357
   0.789        -19.358
   0.791        -19.360
   0.793        -19.362
   0.795        -19.363
   0.797        -19.365
   0.799        -19.366
   0.802        -19.368
   0.804        -19.370
   0.806        -19.372
   0.808        -19.374
   0.810        -19.376
   0.812        -19.378
   0.815        -19.380
   0.817        -19.382
   0.819        -19.384
   0.821        -19.386
   0.823        -19.388
   0.825        -19.390
   0.828        -19.392
   0.830        -19.394
   0.832        -19.397
   0.834        -19.399
   0.836        -19.401
   0.838        -19.403
   0.841        -19.406
   0.843        -19.408
   0.845        -19.410
   0.847        -19.413
   0.849        -19.415
   0.852        -19.418
   0.854        -19.420
   0.856        -19.423
   0.858        -19.425
   0.860        -19.428
   0.862        -19.430
   0.865        -19.433
   0.867        -19.435
   0.869        -19.438
   0.871        -19.441
   0.873        -19.443
   0.875        -19.446
   0.878        -19.449
   0.880        -19.451
   0.882        -19.454
   0.884        -19.457
   0.886        -19.460
   0.888        -19.463
   0.891        -19.466
   0.893        -19.469
   0.895        -19.473
   0.897        -19.476
   0.899        -19.479
   0.901        -19.482
   0.904        -19.486
   0.906        -19.489
   0.908        -19.493
   0.910        -19.497
   0.912        -19.501
   0.915        -19.505
   0.917        -19.509
   0.919        -19.513
   0.921        -19.517
   0.923        -19.521
   0.925        -19.525
   0.928        -19.529
   0.930        -19.534
   0.932        -19.539
   0.934        -19.544
   0.936        -19.548
   0.938        -19.553
   0.941        -19.558
   0.943        -19.563
   0.945        -19.567
   0.947        -19.572
   0.949        -19.579
   0.951        -19.585
   0.954        -19.592
   0.956        -19.598
   0.958        -19.605
   0.960        -19.612
   0.962        -19.618
   0.964        -19.625
   0.967        -19.631
   0.969        -19.637
   0.971        -19.642
   0.973        -19.647
   0.975        -19.653
   0.977        -19.658
   0.980        -19.663
   0.982        -19.668
   0.984        -19.673
   0.986        -19.678
   0.988        -19.686
   0.990        -19.695
   0.993        -19.701
   0.995        -19.707
   0.997        -19.713
   0.999        -19.719
   1.001        -19.725
   1.004        -19.731
   1.006        -19.736
   1.008        -19.742
   1.010        -19.750
   1.012        -19.761
   1.014        -19.772
   1.017        -19.783
   1.019        -19.795
   1.021        -19.806
   1.023        -19.817
   1.025        -19.829
   1.027        -19.840
   1.030        -19.851
   1.032        -19.866
   1.034        -19.882
   1.036        -19.898
   1.038        -19.915
   1.040        -19.931
   1.043        -19.947
   1.045        -19.964
   1.047        -19.980
   1.049        -19.996
   1.051        -20.014
   1.053        -20.039
   1.056        -20.065
   1.058        -20.091
   1.060        -20.116
   1.062        -20.142
   1.064        -20.168
   1.066        -20.194
   1.069        -20.220
   1.071        -20.246
   1.073        -20.286
   1.075        -20.338
   1.077        -20.391
   1.079        -20.444
   1.082        -20.496
   1.084        -20.549
   1.086        -20.601
   1.088        -20.654
   1.090        -20.706
   1.093        -20.759
   1.095        -20.810
   1.097        -20.862
   1.099        -20.913
   1.101        -20.964
   1.103        -21.015
   1.106        -21.066
   1.108        -21.118
   1.110        -21.169
   1.112        -21.227
   1.114        -21.258
   1.117        -21.261
   1.119        -21.264
   1.121        -21.267
   1.123        -21.270
   1.125        -21.273
   1.127        -21.276
   1.129        -21.279
   1.131        -21.282
   1.134        -21.286
   1.136        -21.289
   1.138        -21.291
   1.140        -21.295
   1.143        -21.297
   1.145        -21.300
   1.147        -21.303
   1.149        -21.306
   1.151        -21.309
   1.153        -21.312
   1.155        -21.314
   1.158        -21.317
   1.160        -21.319
   1.162        -21.322
   1.164        -21.325
   1.166        -21.328
   1.169        -21.330
   1.171        -21.333
   1.173        -21.336
   1.175        -21.339
   1.177        -21.341
   1.180        -21.344
   1.181        -21.347
   1.184        -21.349
   1.186        -21.352
   1.188        -21.355
   1.190        -21.358
   1.192        -21.360
   1.195        -21.363
   1.197        -21.366
   1.199        -21.368
   1.201        -21.371
   1.203        -21.374
   1.205        -21.376
   1.208        -21.379
   1.210        -21.382
   1.212        -21.385
   1.214        -21.387
   1.216        -21.390
   1.218        -21.393
   1.220        -21.395
   1.223        -21.398
   1.225        -21.401
   1.227        -21.403
   1.229        -21.406
   1.232        -21.409
   1.234        -21.411
   1.236        -21.414
   1.238        -21.417
   1.240        -21.419
   1.242        -21.422
   1.245        -21.425
   1.247        -21.427
   1.249        -21.430
   1.251        -21.432
   1.253        -21.435
   1.255        -21.438
   1.258        -21.440
   1.260        -21.443
   1.262        -21.446
   1.264        -21.449
   1.266        -21.452
   1.268        -21.455
   1.270        -21.457
   1.273        -21.460
   1.275        -21.463
   1.277        -21.466
   1.279        -21.469
   1.281        -21.472
   1.284        -21.475
   1.286        -21.478
   1.288        -21.482
   1.290        -21.484
   1.292        -21.488
   1.294        -21.491
   1.297        -21.494
   1.299        -21.497
   1.301        -21.500
   1.303        -21.504
   1.305        -21.507
   1.307        -21.510
   1.310        -21.513
   1.312        -21.517
   1.314        -21.520
   1.316        -21.524
   1.318        -21.527
   1.320        -21.530
   1.323        -21.534
   1.325        -21.537
   1.327        -21.541
   1.329        -21.544
   1.331        -21.548
   1.334        -21.551
   1.336        -21.554
   1.338        -21.558
   1.340        -21.561
   1.342        -21.565
   1.344        -21.569
   1.346        -21.572
   1.349        -21.576
   1.351        -21.580
   1.353        -21.584
   1.355        -21.587
   1.357        -21.591
   1.359        -21.595
   1.362        -21.599
   1.364        -21.602
   1.366        -21.605
   1.368        -21.609
   1.370        -21.612
   1.373        -21.616
   1.375        -21.619
   1.377        -21.622
   1.379        -21.626
   1.381        -21.629
   1.383        -21.632
   1.386        -21.635
   1.388        -21.638
   1.390        -21.640
   1.392        -21.642
   1.394        -21.645
   1.397        -21.648
   1.399        -21.650
   1.401        -21.653
   1.403        -21.655
   1.405        -21.658
   1.407        -21.660
   1.410        -21.663
   1.412        -21.665
   1.414        -21.668
   1.416        -21.670
   1.418        -21.673
   1.420        -21.675
   1.423        -21.678
   1.425        -21.680
   1.427        -21.683
   1.429        -21.685
   1.431        -21.687
   1.433        -21.690
   1.436        -21.692
   1.438        -21.695
   1.440        -21.697
   1.442        -21.699
   1.444        -21.702
   1.446        -21.704
   1.449        -21.706
   1.451        -21.708
   1.453        -21.711
   1.455        -21.713
   1.457        -21.715
   1.460        -21.717
   1.462        -21.719
   1.464        -21.721
   1.466        -21.724
   1.468        -21.725
   1.470        -21.727
   1.472        -21.729
   1.475        -21.731
   1.477        -21.733
   1.479        -21.735
   1.481        -21.736
   1.483        -21.738
   1.486        -21.740
   1.488        -21.741
   1.490        -21.743
   1.492        -21.744
   1.494        -21.746
   1.496        -21.747
   1.498        -21.749
   1.501        -21.750
   1.503        -21.752
   1.505        -21.753
   1.507        -21.754
   1.509        -21.756
   1.512        -21.757
   1.514        -21.758
   1.516        -21.759
   1.518        -21.760
   1.520        -21.761
   1.522        -21.762
   1.525        -21.763
   1.527        -21.764
   1.529        -21.766
   1.531        -21.766
   1.533        -21.767
   1.535        -21.768
   1.538        -21.769
   1.540        -21.770
   1.542        -21.771
   1.544        -21.771
   1.546        -21.772
   1.549        -21.773
   1.551        -21.774
   1.553        -21.775
   1.555        -21.776
   1.557        -21.777
   1.559        -21.778
   1.561        -21.779
   1.564        -21.780
   1.566        -21.781
   1.568        -21.782
   1.570        -21.783
   1.572        -21.785
   1.575        -21.787
   1.577        -21.789
   1.579        -21.791
   1.581        -21.792
   1.583        -21.794
   1.585        -21.796
   1.588        -21.798
   1.590        -21.868
   1.592        -22.020
   1.594        -22.026
   1.596        -22.031
   1.598        -22.036
   1.601        -22.042
   1.603        -22.047
   1.605        -22.053
   1.607        -22.058
   1.609        -22.063
   1.611        -22.069
   1.614        -22.075
   1.616        -22.081
   1.618        -22.087
   1.620        -22.093
   1.622        -22.100
   1.624        -22.106
   1.627        -22.112
   1.629        -22.118
   1.631        -22.124
   1.633        -22.131
   1.635        -22.138
   1.637        -22.145
   1.640        -22.152
   1.642        -22.159
   1.644        -22.166
   1.646        -22.173
   1.648        -22.180
   1.651        -22.187
   1.653        -22.193
   1.655        -22.201
   1.657        -22.209
   1.659        -22.217
   1.661        -22.225
   1.664        -22.233
   1.666        -22.241
   1.668        -22.249
   1.670        -22.257
   1.672        -22.264
   1.674        -22.273
   1.676        -22.282
   1.679        -22.292
   1.681        -22.301
   1.683        -22.311
   1.685        -22.320
   1.687        -22.330
   1.690        -22.339
   1.692        -22.349
   1.694        -22.358
   1.696        -22.371
   1.699        -22.387
   1.701        -22.401
   1.703        -22.414
   1.705        -22.427
   1.707        -22.441
   1.709        -22.455
   1.711        -22.469
   1.714        -22.485
   1.716        -22.495
   1.718        -22.519
   1.720        -22.542
   1.722        -22.571
   1.724        -22.600
   1.727        -22.629
   1.729        -22.658
   1.731        -22.687
   1.733        -22.715
   1.735        -22.744
   1.737        -22.768
   1.739        -22.785
   1.742        -22.802
   1.744        -22.818
   1.746        -22.835
   1.748        -22.852
   1.750        -22.868
   1.753        -22.885
   1.755        -22.901
   1.757        -22.917
   1.759        -22.927
   1.761        -22.934
   1.763        -22.941
   1.766        -22.948
   1.768        -22.955
   1.770        -22.963
   1.772        -22.970
   1.774        -22.977
   1.776        -22.984
   1.779        -22.991
   1.781        -22.994
   1.783        -22.997
   1.785        -23.000
   1.787        -23.003
   1.789        -23.006
   1.792        -23.009
   1.794        -23.012
   1.796        -23.015
   1.798        -23.018
   1.800        -23.020
   1.802        -23.022
   1.805        -23.023
   1.807        -23.025
   1.809        -23.027
   1.811        -23.028
   1.813        -23.030
   1.816        -23.031
   1.818        -23.033
   1.820        -23.035
   1.822        -23.036
   1.824        -23.037
   1.826        -23.039
   1.829        -23.040
   1.831        -23.041
   1.833        -23.043
   1.835        -23.044
   1.837        -23.045
   1.839        -23.046
   1.842        -23.048
   1.844        -23.049
   1.846        -23.050
   1.848        -23.051
   1.850        -23.053
   1.852        -23.054
   1.855        -23.055
   1.857        -23.056
   1.859        -23.058
   1.861        -23.059
   1.863        -23.060
   1.865        -23.061
   1.868        -23.063
   1.870        -23.064
   1.872        -23.065
   1.874        -23.066
   1.876        -23.068
   1.878        -23.069
   1.881        -23.071
   1.883        -23.072
   1.885        -23.073
   1.887        -23.074
   1.889        -23.076
   1.891        -23.077
   1.894        -23.079
   1.896        -23.080
   1.898        -23.081
   1.900        -23.083
   1.902        -23.084
   1.905        -23.085
   1.907        -23.087
   1.909        -23.088
   1.911        -23.090
   1.913        -23.091
   1.915        -23.093
   1.918        -23.094
   1.920        -23.096
   1.922        -23.097
   1.924        -23.099
   1.926        -23.100
   1.928        -23.102
   1.931        -23.103
   1.933        -23.105
   1.935        -23.106
   1.937        -23.108
   1.939        -23.109
   1.941        -23.111
   1.944        -23.112
   1.946        -23.114
   1.948        -23.115
   1.950        -23.117
   1.952        -23.119
   1.954        -23.120
   1.957        -23.122
   1.959        -23.124
   1.961        -23.125
   1.963        -23.127
   1.965        -23.129
   1.967        -23.130
   1.970        -23.132
   1.972        -23.134
   1.974        -23.135
   1.976        -23.137
   1.978        -23.139
   1.980        -23.141
   1.983        -23.142
   1.985        -23.144
   1.987        -23.146
   1.989        -23.148
   1.991        -23.149
   1.993        -23.151
   1.996        -23.153
   1.998        -23.155
   2.000        -23.157
   2.002        -23.159
   2.004        -23.160
   2.007        -23.162
   2.009        -23.164
   2.011        -23.166
   2.013        -23.168
   2.015        -23.170
   2.017        -23.171
   2.020        -23.173
   2.022        -23.175
   2.024        -23.177
   2.026        -23.179
   2.028        -23.181
   2.030        -23.183
   2.033        -23.185
   2.035        -23.187
   2.037        -23.189
   2.039        -23.191
   2.041        -23.193
   2.043        -23.195
   2.046        -23.197
   2.048        -23.199
   2.050        -23.201
   2.052        -23.203
   2.054        -23.205
   2.056        -23.207
   2.059        -23.209
   2.061        -23.211
   2.063        -23.213
   2.065        -23.215
   2.067        -23.217
   2.069        -23.219
   2.072        -23.221
   2.074        -23.223
   2.076        -23.225
   2.078        -23.227
   2.080        -23.230
   2.083        -23.232
   2.085        -23.234
   2.087        -23.236
   2.089        -23.238
   2.091        -23.240
   2.093        -23.242
   2.096        -23.244
   2.098        -23.246
   2.100        -23.249
   2.102        -23.251
   2.104        -23.253
   2.106        -23.255
   2.109        -23.257
   2.111        -23.259
   2.113        -23.261
   2.115        -23.263
   2.117        -23.266
   2.120        -23.268
   2.122        -23.270
   2.124        -23.272
   2.126        -23.274
   2.128        -23.276
   2.130        -23.278
   2.133        -23.280
   2.135        -23.282
   2.137        -23.284
   2.139        -23.286
   2.141        -23.289
   2.143        -23.291
   2.145        -23.293
   2.148        -23.295
   2.150        -23.297
   2.152        -23.299
   2.154        -23.301
   2.157        -23.304
   2.158        -23.305
   2.161        -23.308
   2.163        -23.310
   2.165        -23.312
   2.167        -23.314
   2.169        -23.316
   2.172        -23.318
   2.174        -23.320
   2.176        -23.322
   2.178        -23.324
   2.180        -23.326
   2.183        -23.329
   2.185        -23.331
   2.187        -23.333
   2.189        -23.335
   2.191        -23.337
   2.193        -23.339
   2.195        -23.341
   2.197        -23.343
   2.200        -23.345
   2.202        -23.347
   2.204        -23.349
   2.206        -23.351
   2.208        -23.353
   2.211        -23.355
   2.213        -23.358
   2.215        -23.360
   2.217        -23.361
   2.219        -23.364
   2.221        -23.366
   2.224        -23.367
   2.226        -23.369
   2.228        -23.371
   2.230        -23.373
   2.232        -23.375
   2.235        -23.377
   2.237        -23.379
   2.239        -23.381
   2.241        -23.383
   2.243        -23.385
   2.245        -23.387
   2.247        -23.389
   2.250        -23.391
   2.252        -23.393
   2.254        -23.395
   2.256        -23.396
   2.259        -23.398
   2.261        -23.400
   2.263        -23.402
   2.265        -23.404
   2.267        -23.405
   2.269        -23.407
   2.271        -23.409
   2.274        -23.411
   2.276        -23.412
   2.278        -23.415
   2.280        -23.416
   2.282        -23.418
   2.284        -23.419
   2.287        -23.421
   2.289        -23.423
   2.291        -23.424
   2.293        -23.426
   2.295        -23.428
   2.297        -23.430
   2.299        -23.431
   2.302        -23.433
   2.304        -23.434
   2.306        -23.436
   2.308        -23.438
   2.310        -23.439
   2.313        -23.441
   2.315        -23.442
   2.317        -23.444
   2.319        -23.446
   2.321        -23.447
   2.323        -23.449
   2.326        -23.450
   2.328        -23.452
   2.330        -23.453
   2.332        -23.455
   2.334        -23.456
   2.337        -23.458
   2.339        -23.459
   2.341        -23.461
   2.343        -23.462
   2.345        -23.464
   2.347        -23.465
   2.349        -23.467
   2.352        -23.468
   2.354        -23.470
   2.356        -23.471
   2.358        -23.473
   2.360        -23.474
   2.363        -23.476
   2.365        -23.477
   2.367        -23.479
   2.369        -23.480
   2.371        -23.482
   2.374        -23.483
   2.376        -23.485
   2.378        -23.486
   2.380        -23.488
   2.382        -23.489
   2.384        -23.491
   2.386        -23.492
   2.389        -23.494
   2.391        -23.496
   2.393        -23.497
   2.395        -23.499
   2.397        -23.500
   2.400        -23.502
   2.402        -23.504
   2.404        -23.505
   2.406        -23.507
   2.408        -23.509
   2.410        -23.511
   2.413        -23.513
   2.415        -23.514
   2.417        -23.516
   2.419        -23.518
   2.421        -23.520
   2.423        -23.521
   2.425        -23.523
   2.428        -23.524
   2.430        -23.526
   2.432        -23.527
   2.434        -23.529
   2.436        -23.530
   2.439        -23.532
   2.441        -23.533
   2.443        -23.534
   2.445        -23.536
   2.447        -23.537
   2.449        -23.538
   2.452        -23.538
   2.454        -23.539
   2.456        -23.540
   2.458        -23.541
   2.460        -23.542
   2.462        -23.543
   2.465        -23.544
   2.467        -23.545
   2.469        -23.546
   2.471        -23.547
   2.473        -23.547
   2.475        -23.548
   2.478        -23.549
   2.480        -23.550
   2.482        -23.551
   2.484        -23.552
   2.486        -23.552
   2.489        -23.553
   2.491        -23.554
   2.493        -23.555
   2.495        -23.556
   2.497        -23.557
   2.499        -23.558
   2.502        -23.559
   2.504        -23.560
   2.506        -23.561
   2.508        -23.562
   2.510        -23.562
   2.512        -23.564
   2.514        -23.564
   2.517        -23.565
   2.519        -23.567
   2.521        -23.567
   2.523        -23.568
   2.525        -23.569
   2.528        -23.570
   2.530        -23.572
   2.532        -23.573
   2.534        -23.574
   2.536        -23.575
   2.538        -23.576
   2.541        -23.578
   2.543        -23.579
   2.545        -23.580
   2.547        -23.581
   2.549        -23.582
   2.552        -23.584
   2.554        -23.585
   2.556        -23.587
   2.558        -23.588
   2.560        -23.590
   2.562        -23.591
   2.565        -23.593
   2.567        -23.594
   2.569        -23.596
   2.571        -23.597
   2.573        -23.599
   2.575        -23.601
   2.578        -23.603
   2.580        -23.605
   2.582        -23.607
   2.584        -23.609
   2.586        -23.611
   2.588        -23.612
   2.590        -23.614
   2.593        -23.617
   2.595        -23.619
   2.597        -23.622
   2.599        -23.624
   2.601        -23.627
   2.604        -23.629
   2.606        -23.631
   2.608        -23.634
   2.610        -23.636
   2.612        -23.639
   2.614        -23.643
   2.617        -23.646
   2.619        -23.649
   2.621        -23.652
   2.623        -23.655
   2.625        -23.658
   2.627        -23.662
   2.630        -23.665
   2.632        -23.668
   2.634        -23.672
   2.636        -23.677
   2.638        -23.681
   2.641        -23.685
   2.643        -23.690
   2.645        -23.694
   2.647        -23.698
   2.649        -23.703
   2.651        -23.707
   2.654        -23.712
   2.656        -23.717
   2.658        -23.723
   2.660        -23.729
   2.662        -23.734
   2.664        -23.740
   2.666        -23.746
   2.669        -23.751
   2.671        -23.757
   2.673        -23.763
   2.675        -23.769
   2.677        -23.776
   2.680        -23.783
   2.682        -23.790
   2.684        -23.797
   2.686        -23.803
   2.688        -23.810
   2.690        -23.817
   2.693        -23.824
   2.695        -23.831
   2.697        -23.837
   2.699        -23.844
   2.701        -23.851
   2.703        -23.857
   2.706        -23.864
   2.708        -23.870
   2.710        -23.877
   2.712        -23.883
   2.714        -23.890
   2.716        -23.896
   2.719        -23.902
   2.721        -23.907
   2.723        -23.913
   2.725        -23.919
   2.727        -23.924
   2.729        -23.930
   2.732        -23.936
   2.734        -23.941
   2.736        -23.947
   2.738        -23.952
   2.740        -23.957
   2.743        -23.962
   2.745        -23.967
   2.747        -23.972
   2.749        -23.977
   2.751        -23.982
   2.753        -23.987
   2.756        -23.992
   2.758        -23.997
   2.760        -24.001
   2.762        -24.006
   2.764        -24.011
   2.766        -24.015
   2.769        -24.020
   2.771        -24.024
   2.773        -24.029
   2.775        -24.033
   2.777        -24.038
   2.779        -24.042
   2.782        -24.046
   2.784        -24.050
   2.786        -24.054
   2.788        -24.059
   2.790        -24.063
   2.792        -24.067
   2.795        -24.071
   2.797        -24.075
   2.799        -24.079
   2.801        -24.082
   2.803        -24.086
   2.805        -24.090
   2.808        -24.094
   2.810        -24.097
   2.812        -24.101
   2.814        -24.105
   2.816        -24.108
   2.819        -24.112
   2.821        -24.115
   2.823        -24.119
   2.825        -24.122
   2.827        -24.125
   2.829        -24.128
   2.832        -24.131
   2.834        -24.135
   2.836        -24.138
   2.838        -24.141
   2.840        -24.144
   2.842        -24.147
   2.845        -24.150
   2.847        -24.153
   2.849        -24.156
   2.851        -24.158
   2.853        -24.162
   2.855        -24.164
   2.858        -24.167
   2.860        -24.170
   2.862        -24.173
   2.864        -24.175
   2.866        -24.178
   2.868        -24.180
   2.871        -24.182
   2.873        -24.185
   2.875        -24.187
   2.877        -24.190
   2.879        -24.192
   2.881        -24.194
   2.884        -24.197
   2.886        -24.199
   2.888        -24.201
   2.890        -24.204
   2.892        -24.206
   2.894        -24.208
   2.897        -24.210
   2.899        -24.213
   2.901        -24.215
   2.903        -24.217
   2.905        -24.219
   2.908        -24.221
   2.910        -24.223
   2.912        -24.225
   2.914        -24.226
   2.916        -24.228
   2.918        -24.230
   2.921        -24.232
   2.923        -24.234
   2.925        -24.236
   2.927        -24.237
   2.929        -24.239
   2.931        -24.240
   2.934        -24.242
   2.936        -24.243
   2.938        -24.245
   2.940        -24.246
   2.942        -24.248
   2.944        -24.250
   2.947        -24.251
   2.949        -24.252
   2.951        -24.254
   2.953        -24.255
   2.955        -24.257
   2.957        -24.258
   2.960        -24.259
   2.962        -24.261
   2.964        -24.262
   2.966        -24.264
   2.968        -24.265
   2.970        -24.266
   2.973        -24.267
   2.975        -24.269
   2.977        -24.270
   2.979        -24.271
   2.981        -24.273
   2.984        -24.274
   2.986        -24.275
   2.988        -24.276
   2.990        -24.278
   2.992        -24.279
   2.994        -24.280
   2.997        -24.281
   2.999        -24.282
   3.001        -24.284
   3.003        -24.285
   3.005        -24.286
   3.007        -24.287
   3.010        -24.288
   3.012        -24.289
   3.014        -24.291
   3.016        -24.292
   3.018        -24.293
   3.020        -24.294
   3.023        -24.295
   3.025        -24.296
   3.027        -24.297
   3.029        -24.298
   3.031        -24.300
   3.033        -24.301
   3.036        -24.302
   3.038        -24.303
   3.040        -24.304
   3.042        -24.305
   3.044        -24.306
   3.046        -24.307
   3.049        -24.309
   3.051        -24.309
   3.053        -24.311
   3.055        -24.312
   3.057        -24.313
   3.060        -24.314
   3.062        -24.315
   3.064        -24.316
   3.066        -24.317
   3.068        -24.318
   3.070        -24.319
   3.073        -24.320
   3.075        -24.321
   3.077        -24.322
   3.079        -24.323
   3.081        -24.324
   3.083        -24.325
   3.086        -24.326
   3.088        -24.327
   3.090        -24.329
   3.092        -24.329
   3.094        -24.330
   3.096        -24.331
   3.099        -24.333
   3.101        -24.333
   3.103        -24.334
   3.105        -24.335
   3.107        -24.336
   3.109        -24.337
   3.112        -24.338
   3.114        -24.339
   3.116        -24.340
   3.118        -24.341
   3.120        -24.342
   3.123        -24.343
   3.125        -24.344
   3.127        -24.345
   3.129        -24.346
   3.131        -24.347
   3.133        -24.348
   3.136        -24.349
   3.138        -24.350
   3.140        -24.350
   3.142        -24.352
   3.144        -24.353
   3.146        -24.353
   3.149        -24.355
   3.151        -24.355
   3.153        -24.356
   3.155        -24.357
   3.157        -24.358
   3.159        -24.359
   3.162        -24.360
   3.164        -24.361
   3.166        -24.362
   3.168        -24.363
   3.170        -24.364
   3.172        -24.365
   3.175        -24.366
   3.177        -24.367
   3.179        -24.368
   3.181        -24.369
   3.183        -24.370
   3.185        -24.371
   3.188        -24.372
   3.190        -24.373
   3.192        -24.374
   3.194        -24.375
   3.196        -24.376
   3.199        -24.376
   3.201        -24.378
   3.203        -24.378
   3.205        -24.379
   3.207        -24.380
   3.209        -24.381
   3.212        -24.382
   3.214        -24.383
   3.216        -24.384
   3.218        -24.385
   3.220        -24.386
   3.222        -24.387
   3.225        -24.388
   3.227        -24.389
   3.229        -24.390
   3.231        -24.391
   3.233        -24.392
   3.236        -24.393
   3.237        -24.394
   3.240        -24.395
   3.242        -24.396
   3.244        -24.397
   3.246        -24.398
   3.248        -24.399
   3.251        -24.400
   3.253        -24.400
   3.255        -24.401
   3.257        -24.402
   3.259        -24.403
   3.261        -24.404
   3.263        -24.405
   3.266        -24.406
   3.268        -24.407
   3.270        -24.408
   3.272        -24.408
   3.274        -24.409
   3.277        -24.410
   3.279        -24.411
   3.281        -24.412
   3.283        -24.413
   3.285        -24.414
   3.287        -24.415
   3.290        -24.416
   3.292        -24.416
   3.294        -24.417
   3.296        -24.418
   3.298        -24.419
   3.301        -24.420
   3.303        -24.421
   3.305        -24.423
   3.307        -24.424
   3.309        -24.425
   3.311        -24.426
   3.313        -24.427
   3.316        -24.428
   3.318        -24.429
   3.320        -24.430
   3.322        -24.432
   3.324        -24.433
   3.327        -24.434
   3.329        -24.435
   3.331        -24.436
   3.333        -24.437
   3.335        -24.438
   3.337        -24.440
   3.340        -24.441
   3.342        -24.442
   3.344        -24.443
   3.346        -24.444
   3.348        -24.445
   3.350        -24.446
   3.352        -24.447
   3.355        -24.449
   3.357        -24.450
   3.359        -24.451
   3.361        -24.452
   3.363        -24.453
   3.366        -24.454
   3.368        -24.455
   3.370        -24.456
   3.372        -24.457
   3.374        -24.458
   3.376        -24.459
   3.379        -24.460
   3.381        -24.462
   3.383        -24.463
   3.385        -24.464
   3.387        -24.465
   3.389        -24.466
   3.392        -24.467
   3.394        -24.468
   3.396        -24.469
   3.398        -24.470
   3.400        -24.471
   3.402        -24.472
   3.405        -24.473
   3.407        -24.474
   3.409        -24.475
   3.411        -24.476
   3.413        -24.477
   3.416        -24.478
   3.418        -24.479
   3.420        -24.480
   3.422        -24.481
   3.424        -24.482
   3.426        -24.483
   3.429        -24.484
   3.431        -24.485
   3.433        -24.486
   3.435        -24.487
   3.437        -24.488
   3.439        -24.489
   3.442        -24.490
   3.444        -24.491
   3.446        -24.492
   3.448        -24.493
   3.450        -24.494
   3.452        -24.495
   3.455        -24.496
   3.457        -24.497
   3.459        -24.498
   3.461        -24.499
   3.463        -24.500
   3.466        -24.501
   3.468        -24.502
   3.470        -24.503
   3.472        -24.504
   3.474        -24.505
   3.476        -24.506
   3.478        -24.507
   3.481        -24.508
   3.483        -24.508
   3.485        -24.509
   3.487        -24.510
   3.489        -24.511
   3.492        -24.512
   3.494        -24.513
   3.496        -24.514
   3.498        -24.515
   3.500        -24.516
   3.502        -24.517
   3.505        -24.518
   3.507        -24.519
   3.509        -24.520
   3.511        -24.521
   3.513        -24.522
   3.515        -24.522
   3.518        -24.523
   3.520        -24.524
   3.522        -24.525
   3.524        -24.526
   3.526        -24.527
   3.528        -24.528
   3.531        -24.529
   3.533        -24.530
   3.535        -24.531
   3.537        -24.532
   3.539        -24.533
   3.541        -24.533
   3.544        -24.534
   3.546        -24.535
   3.548        -24.536
   3.550        -24.537
   3.552        -24.538
   3.555        -24.539
   3.557        -24.540
   3.559        -24.541
   3.561        -24.542
   3.563        -24.543
   3.565        -24.544
   3.568        -24.545
   3.570        -24.546
   3.572        -24.547
   3.574        -24.548
   3.576        -24.549
   3.578        -24.550
   3.581        -24.551
   3.583        -24.552
   3.585        -24.553
   3.587        -24.554
   3.589        -24.555
   3.591        -24.556
   3.594        -24.556
   3.596        -24.557
   3.598        -24.558
   3.600        -24.559
   3.602        -24.560
   3.604        -24.561
   3.607        -24.562
   3.609        -24.563
   3.611        -24.564
   3.613        -24.565
   3.615        -24.566
   3.617        -24.567
   3.620        -24.568
   3.622        -24.569
   3.624        -24.570
   3.626        -24.571
   3.628        -24.572
   3.630        -24.573
   3.633        -24.574
   3.635        -24.575
   3.637        -24.576
   3.639        -24.577
   3.641        -24.578
   3.644        -24.579
   3.646        -24.580
   3.648        -24.581
   3.650        -24.582
   3.652        -24.583
   3.654        -24.584
   3.657        -24.585
   3.659        -24.586
   3.661        -24.587
   3.663        -24.588
   3.665        -24.589
   3.667        -24.590
   3.670        -24.591
   3.672        -24.592
   3.674        -24.593
   3.676        -24.594
   3.678        -24.595
   3.680        -24.596
   3.683        -24.597
   3.685        -24.598
   3.687        -24.600
   3.689        -24.601
   3.691        -24.602
   3.693        -24.603
   3.696        -24.604
   3.698        -24.605
   3.700        -24.606
   3.702        -24.607
   3.704        -24.608
   3.706        -24.609
   3.709        -24.610
   3.711        -24.611
   3.713        -24.613
   3.715        -24.614
   3.717        -24.615
   3.719        -24.616
   3.722        -24.617
   3.724        -24.618
   3.726        -24.620
   3.728        -24.621
   3.730        -24.622
   3.733        -24.623
   3.735        -24.624
   3.737        -24.625
   3.739        -24.627
   3.741        -24.628
   3.743        -24.629
   3.746        -24.630
   3.748        -24.632
   3.750        -24.633
   3.752        -24.634
   3.754        -24.635
   3.756        -24.637
   3.759        -24.638
   3.761        -24.639
   3.763        -24.641
   3.765        -24.642
   3.767        -24.643
   3.769        -24.645
   3.772        -24.646
   3.774        -24.647
   3.776        -24.649
   3.778        -24.650
   3.780        -24.652
   3.782        -24.653
   3.785        -24.655
   3.787        -24.656
   3.789        -24.657
   3.791        -24.659
   3.793        -24.660
   3.795        -24.662
   3.798        -24.663
   3.800        -24.665
   3.802        -24.666
   3.804        -24.668
   3.806        -24.669
   3.809        -24.671
   3.811        -24.672
   3.813        -24.674
   3.815        -24.675
   3.817        -24.677
   3.819        -24.678
   3.822        -24.680
   3.824        -24.681
   3.826        -24.683
   3.828        -24.684
   3.830        -24.686
   3.832        -24.687
   3.835        -24.689
   3.837        -24.690
   3.839        -24.692
   3.841        -24.693
   3.843        -24.694
   3.845        -24.695
   3.848        -24.696
   3.850        -24.697
   3.852        -24.698
   3.854        -24.699
   3.856        -24.700
   3.858        -24.701
   3.861        -24.702
   3.863        -24.703
   3.865        -24.704
   3.867        -24.704
   3.869        -24.705
   3.871        -24.706
   3.874        -24.707
   3.876        -24.707
   3.878        -24.708
   3.880        -24.709
   3.882        -24.709
   3.885        -24.710
   3.887        -24.711
   3.889        -24.712
   3.891        -24.712
   3.899        -24.715
   3.912        -24.719
   3.925        -24.723
   3.938        -24.727
   3.951        -24.731
   3.964        -24.735
   3.977        -24.738
   3.990        -24.742
   4.003        -24.746
   4.016        -24.750
   4.029        -24.753
   4.042        -24.757
   4.055        -24.761
   4.068        -24.764
   4.081        -24.768
   4.094        -24.772
   4.107        -24.776
   4.120        -24.780
   4.133        -24.784
   4.146        -24.788
   4.159        -24.791
   4.172        -24.795
   4.185        -24.800
   4.198        -24.804
   4.211        -24.809
   4.224        -24.814
   4.237        -24.820
   4.250        -24.825
   4.263        -24.832
   4.276        -24.838
   4.289        -24.845
   4.302        -24.853
   4.315        -24.861
   4.328        -24.869
   4.341        -24.878
   4.354        -24.887
   4.367        -24.897
   4.380        -24.907
   4.393        -24.918
   4.406        -24.928
   4.420        -24.940
   4.432        -24.951
   4.445        -24.963
   4.459        -24.975
   4.471        -24.987
   4.484        -25.000
   4.498        -25.012
   4.510        -25.025
   4.524        -25.038
   4.537        -25.052
   4.550        -25.066
   4.563        -25.079
   4.576        -25.093
   4.589        -25.108
   4.602        -25.122
   4.615        -25.137
   4.628        -25.151
   4.641        -25.166
   4.654        -25.181
   4.667        -25.196
   4.680        -25.211
   4.693        -25.227
   4.706        -25.242
   4.719        -25.258
   4.732        -25.274
   4.745        -25.290
   4.758        -25.306
   4.771        -25.322
   4.784        -25.339
   4.797        -25.355
   4.810        -25.372
   4.823        -25.389
   4.836        -25.406
   4.849        -25.423
   4.862        -25.440
   4.875        -25.458
   4.888        -25.476
   4.901        -25.493
   4.914        -25.511
   4.927        -25.529
   4.940        -25.547
   4.953        -25.566
   4.966        -25.584
   4.979        -25.603
   4.992        -25.622
   5.005        -25.640
   5.018        -25.659
   5.031        -25.678
   5.044        -25.698
   5.057        -25.717
   5.070        -25.737
   5.083        -25.757
   5.096        -25.776
   5.109        -25.796
   5.123        -25.816
   5.136        -25.836
   5.149        -25.856
   5.162        -25.876
   5.175        -25.896
   5.188        -25.916
   5.201        -25.936
   5.214        -25.957
   5.227        -25.977
   5.240        -25.998
   5.253        -26.018
   5.266        -26.039
   5.279        -26.060
   5.292        -26.080
   5.305        -26.101
   5.318        -26.122
   5.331        -26.143
   5.344        -26.164
   5.357        -26.186
   5.370        -26.207
   5.383        -26.229
   5.396        -26.251
   5.409        -26.273
   5.422        -26.296
   5.435        -26.318
   5.448        -26.341
   5.461        -26.364
   5.474        -26.388
   5.487        -26.411
   5.500        -26.435
   5.513        -26.460
   5.526        -26.484
   5.539        -26.509
   5.552        -26.534
   5.565        -26.560
   5.578        -26.586
   5.591        -26.612
   5.604        -26.639
   5.617        -26.666
   5.630        -26.694
   5.643        -26.721
   5.656        -26.750
   5.669        -26.778
   5.682        -26.807
   5.695        -26.837
   5.708        -26.867
   5.721        -26.897
   5.734        -26.929
   5.748        -26.960
   5.761        -26.993
   5.774        -27.025
   5.787        -27.059
   5.800        -27.093
   5.813        -27.127
   5.826        -27.162
   5.839        -27.198
   5.852        -27.235
   5.865        -27.272
   5.878        -27.310
   5.891        -27.349
   5.904        -27.389
   5.917        -27.429
   5.930        -27.470
   5.943        -27.512
   5.956        -27.554
   5.969        -27.597
   5.982        -27.642
   5.995        -27.688
   6.008        -27.735
   6.021        -27.782
   6.034        -27.830
   6.047        -27.878
   6.060        -27.930
   6.073        -27.982
   6.086        -28.034
   6.099        -28.088
   6.112        -28.143
   6.125        -28.199
   6.138        -28.257
   6.151        -28.315
   6.164        -28.376
   6.177        -28.437
   6.190        -28.500
   6.203        -28.565
   6.216        -28.630
   6.229        -28.698
   6.242        -28.767
   6.255        -28.837
   6.268        -28.910
   6.281        -28.984
   6.294        -29.060
   6.307        -29.137
   6.320        -29.216
   6.334        -29.298
   6.346        -29.382
   6.359        -29.467
   6.372        -29.554
   6.386        -29.644
   6.399        -29.736
   6.411        -29.830
   6.425        -29.927
   6.438        -30.027
   6.451        -30.128
   6.464        -30.231
   6.477        -30.337
   6.490        -30.446
   6.503        -30.559
   6.516        -30.674
   6.529        -30.791
   6.542        -30.913
   6.555        -31.037
   6.568        -31.164
   6.581        -31.294
   6.594        -31.429
   6.607        -31.569
   6.620        -31.711
   6.633        -31.854
   6.646        -32.000
   6.659        -32.152
   6.672        -32.310
   6.685        -32.470
   6.698        -32.635
   6.711        -32.805
   6.724        -32.981
   6.737        -33.159
   6.750        -33.340
   6.763        -33.533
   6.776        -33.735
   6.789        -33.936
   6.802        -34.140
   6.815        -34.349
   6.828        -34.588
   6.841        -34.848
   6.854        -35.147
   6.867        -35.775
   6.880        -36.828
   6.893        -40.535
