# log Energy    log Jnu
# (eV)          (ergs/s/cm2/Hz/Sr)
  -6.864        -20.229
  -6.820        -20.142
  -6.777        -20.055
  -6.734        -19.968
  -6.690        -19.881
  -6.647        -19.795
  -6.603        -19.708
  -6.560        -19.621
  -6.516        -19.534
  -6.473        -19.447
  -6.430        -19.360
  -6.386        -19.273
  -6.343        -19.187
  -6.299        -19.100
  -6.256        -19.013
  -6.212        -18.926
  -6.169        -18.839
  -6.126        -18.752
  -6.082        -18.665
  -6.039        -18.579
  -5.995        -18.492
  -5.952        -18.405
  -5.908        -18.318
  -5.865        -18.231
  -5.822        -18.144
  -5.778        -18.058
  -5.735        -17.971
  -5.691        -17.884
  -5.648        -17.797
  -5.605        -17.710
  -5.561        -17.624
  -5.518        -17.537
  -5.474        -17.450
  -5.431        -17.363
  -5.387        -17.276
  -5.344        -17.190
  -5.300        -17.103
  -5.257        -17.016
  -5.214        -16.929
  -5.170        -16.842
  -5.127        -16.756
  -5.083        -16.669
  -5.040        -16.582
  -4.996        -16.496
  -4.953        -16.409
  -4.910        -16.322
  -4.866        -16.236
  -4.823        -16.149
  -4.779        -16.063
  -4.736        -15.976
  -4.692        -15.889
  -4.649        -15.803
  -4.606        -15.716
  -4.562        -15.630
  -4.519        -15.544
  -4.475        -15.457
  -4.432        -15.371
  -4.388        -15.285
  -4.345        -15.199
  -4.302        -15.113
  -4.258        -15.027
  -4.215        -14.941
  -4.171        -14.855
  -4.128        -14.770
  -4.084        -14.684
  -4.041        -14.599
  -3.998        -14.514
  -3.954        -14.429
  -3.911        -14.344
  -3.867        -14.259
  -3.824        -14.175
  -3.781        -14.091
  -3.737        -14.007
  -3.693        -13.924
  -3.650        -13.840
  -3.607        -13.759
  -3.584        -13.719
  -3.582        -13.709
  -3.580        -13.707
  -3.577        -13.704
  -3.575        -13.700
  -3.573        -13.696
  -3.571        -13.692
  -3.569        -13.687
  -3.567        -13.684
  -3.564        -13.679
  -3.562        -13.675
  -3.560        -13.671
  -3.558        -13.667
  -3.556        -13.663
  -3.554        -13.659
  -3.551        -13.655
  -3.549        -13.651
  -3.547        -13.647
  -3.545        -13.643
  -3.543        -13.639
  -3.540        -13.634
  -3.538        -13.630
  -3.536        -13.626
  -3.534        -13.622
  -3.532        -13.618
  -3.530        -13.614
  -3.528        -13.610
  -3.525        -13.606
  -3.523        -13.602
  -3.521        -13.598
  -3.519        -13.594
  -3.517        -13.590
  -3.514        -13.586
  -3.512        -13.582
  -3.510        -13.577
  -3.508        -13.573
  -3.506        -13.569
  -3.504        -13.565
  -3.502        -13.561
  -3.499        -13.557
  -3.497        -13.553
  -3.495        -13.549
  -3.493        -13.545
  -3.491        -13.541
  -3.488        -13.537
  -3.486        -13.533
  -3.484        -13.529
  -3.482        -13.525
  -3.480        -13.521
  -3.477        -13.517
  -3.475        -13.513
  -3.473        -13.508
  -3.471        -13.505
  -3.469        -13.501
  -3.467        -13.496
  -3.464        -13.493
  -3.462        -13.488
  -3.460        -13.484
  -3.458        -13.480
  -3.456        -13.476
  -3.454        -13.472
  -3.451        -13.468
  -3.449        -13.464
  -3.447        -13.460
  -3.445        -13.456
  -3.443        -13.452
  -3.441        -13.448
  -3.438        -13.444
  -3.436        -13.440
  -3.434        -13.436
  -3.432        -13.432
  -3.430        -13.428
  -3.428        -13.424
  -3.425        -13.420
  -3.423        -13.416
  -3.421        -13.412
  -3.419        -13.408
  -3.417        -13.404
  -3.415        -13.400
  -3.412        -13.396
  -3.410        -13.392
  -3.408        -13.388
  -3.406        -13.384
  -3.404        -13.380
  -3.402        -13.376
  -3.399        -13.372
  -3.397        -13.368
  -3.395        -13.364
  -3.393        -13.360
  -3.391        -13.356
  -3.389        -13.352
  -3.386        -13.348
  -3.384        -13.344
  -3.382        -13.341
  -3.380        -13.337
  -3.378        -13.333
  -3.376        -13.329
  -3.373        -13.325
  -3.371        -13.321
  -3.369        -13.317
  -3.367        -13.313
  -3.365        -13.309
  -3.362        -13.305
  -3.360        -13.301
  -3.358        -13.297
  -3.356        -13.293
  -3.354        -13.289
  -3.352        -13.285
  -3.349        -13.281
  -3.347        -13.277
  -3.345        -13.273
  -3.343        -13.269
  -3.341        -13.266
  -3.339        -13.262
  -3.336        -13.258
  -3.334        -13.254
  -3.332        -13.250
  -3.330        -13.246
  -3.328        -13.242
  -3.326        -13.238
  -3.323        -13.234
  -3.321        -13.230
  -3.319        -13.226
  -3.317        -13.223
  -3.315        -13.219
  -3.313        -13.215
  -3.310        -13.211
  -3.308        -13.207
  -3.306        -13.203
  -3.304        -13.199
  -3.302        -13.195
  -3.300        -13.191
  -3.297        -13.188
  -3.295        -13.184
  -3.293        -13.180
  -3.291        -13.176
  -3.289        -13.172
  -3.287        -13.168
  -3.284        -13.164
  -3.282        -13.160
  -3.280        -13.157
  -3.278        -13.153
  -3.276        -13.149
  -3.273        -13.145
  -3.271        -13.141
  -3.269        -13.137
  -3.267        -13.134
  -3.265        -13.130
  -3.263        -13.126
  -3.260        -13.122
  -3.258        -13.118
  -3.256        -13.114
  -3.254        -13.110
  -3.252        -13.107
  -3.250        -13.103
  -3.247        -13.099
  -3.245        -13.095
  -3.243        -13.091
  -3.241        -13.088
  -3.239        -13.084
  -3.237        -13.080
  -3.234        -13.076
  -3.232        -13.072
  -3.230        -13.068
  -3.228        -13.065
  -3.226        -13.061
  -3.224        -13.057
  -3.221        -13.053
  -3.219        -13.050
  -3.217        -13.046
  -3.215        -13.042
  -3.213        -13.038
  -3.211        -13.035
  -3.208        -13.031
  -3.206        -13.027
  -3.204        -13.023
  -3.202        -13.020
  -3.200        -13.016
  -3.197        -13.012
  -3.195        -13.008
  -3.193        -13.004
  -3.191        -13.001
  -3.189        -12.997
  -3.187        -12.993
  -3.184        -12.990
  -3.182        -12.986
  -3.180        -12.982
  -3.178        -12.978
  -3.176        -12.975
  -3.174        -12.971
  -3.171        -12.967
  -3.169        -12.964
  -3.167        -12.960
  -3.165        -12.956
  -3.163        -12.952
  -3.161        -12.949
  -3.158        -12.945
  -3.156        -12.941
  -3.154        -12.938
  -3.152        -12.934
  -3.150        -12.930
  -3.148        -12.927
  -3.145        -12.923
  -3.143        -12.919
  -3.141        -12.916
  -3.139        -12.912
  -3.137        -12.908
  -3.135        -12.905
  -3.132        -12.901
  -3.130        -12.897
  -3.128        -12.894
  -3.126        -12.890
  -3.124        -12.887
  -3.122        -12.883
  -3.119        -12.879
  -3.117        -12.876
  -3.115        -12.872
  -3.113        -12.868
  -3.111        -12.865
  -3.108        -12.861
  -3.106        -12.858
  -3.104        -12.854
  -3.102        -12.851
  -3.100        -12.847
  -3.098        -12.843
  -3.095        -12.840
  -3.093        -12.836
  -3.091        -12.833
  -3.089        -12.829
  -3.087        -12.825
  -3.085        -12.822
  -3.082        -12.818
  -3.080        -12.815
  -3.078        -12.811
  -3.076        -12.808
  -3.074        -12.804
  -3.072        -12.801
  -3.069        -12.797
  -3.067        -12.794
  -3.065        -12.790
  -3.063        -12.787
  -3.061        -12.783
  -3.059        -12.780
  -3.056        -12.776
  -3.054        -12.773
  -3.052        -12.769
  -3.050        -12.766
  -3.048        -12.762
  -3.046        -12.759
  -3.043        -12.755
  -3.041        -12.752
  -3.039        -12.748
  -3.037        -12.745
  -3.035        -12.741
  -3.032        -12.738
  -3.030        -12.735
  -3.028        -12.731
  -3.026        -12.728
  -3.024        -12.724
  -3.022        -12.721
  -3.019        -12.717
  -3.017        -12.714
  -3.015        -12.711
  -3.013        -12.707
  -3.011        -12.704
  -3.009        -12.700
  -3.006        -12.697
  -3.004        -12.694
  -3.002        -12.690
  -3.000        -12.687
  -2.998        -12.683
  -2.996        -12.680
  -2.993        -12.677
  -2.991        -12.673
  -2.989        -12.670
  -2.987        -12.667
  -2.985        -12.663
  -2.983        -12.660
  -2.980        -12.657
  -2.978        -12.653
  -2.976        -12.650
  -2.974        -12.647
  -2.972        -12.644
  -2.970        -12.640
  -2.967        -12.637
  -2.965        -12.634
  -2.963        -12.630
  -2.961        -12.627
  -2.959        -12.624
  -2.956        -12.621
  -2.954        -12.617
  -2.952        -12.614
  -2.950        -12.611
  -2.948        -12.608
  -2.946        -12.605
  -2.944        -12.601
  -2.941        -12.598
  -2.939        -12.595
  -2.937        -12.592
  -2.935        -12.588
  -2.933        -12.585
  -2.930        -12.582
  -2.928        -12.579
  -2.926        -12.576
  -2.924        -12.573
  -2.922        -12.570
  -2.920        -12.566
  -2.917        -12.563
  -2.915        -12.560
  -2.913        -12.557
  -2.911        -12.554
  -2.909        -12.551
  -2.907        -12.548
  -2.904        -12.544
  -2.902        -12.541
  -2.900        -12.538
  -2.898        -12.535
  -2.896        -12.532
  -2.894        -12.529
  -2.891        -12.526
  -2.889        -12.523
  -2.887        -12.520
  -2.885        -12.517
  -2.883        -12.514
  -2.880        -12.511
  -2.878        -12.508
  -2.876        -12.505
  -2.874        -12.502
  -2.872        -12.499
  -2.870        -12.496
  -2.867        -12.493
  -2.865        -12.490
  -2.863        -12.487
  -2.861        -12.484
  -2.859        -12.482
  -2.857        -12.478
  -2.855        -12.475
  -2.852        -12.473
  -2.850        -12.470
  -2.848        -12.467
  -2.846        -12.464
  -2.843        -12.461
  -2.842        -12.458
  -2.839        -12.455
  -2.837        -12.452
  -2.835        -12.450
  -2.833        -12.447
  -2.831        -12.444
  -2.828        -12.441
  -2.826        -12.439
  -2.824        -12.435
  -2.822        -12.433
  -2.820        -12.430
  -2.817        -12.427
  -2.815        -12.425
  -2.813        -12.422
  -2.811        -12.419
  -2.809        -12.416
  -2.807        -12.413
  -2.805        -12.411
  -2.802        -12.408
  -2.800        -12.405
  -2.798        -12.403
  -2.796        -12.400
  -2.794        -12.397
  -2.792        -12.394
  -2.789        -12.392
  -2.787        -12.389
  -2.785        -12.387
  -2.783        -12.384
  -2.781        -12.382
  -2.779        -12.379
  -2.776        -12.377
  -2.774        -12.374
  -2.772        -12.371
  -2.770        -12.368
  -2.767        -12.366
  -2.765        -12.363
  -2.763        -12.361
  -2.761        -12.358
  -2.759        -12.356
  -2.757        -12.353
  -2.754        -12.351
  -2.753        -12.348
  -2.750        -12.346
  -2.748        -12.344
  -2.746        -12.341
  -2.744        -12.339
  -2.741        -12.336
  -2.739        -12.334
  -2.737        -12.332
  -2.735        -12.329
  -2.733        -12.327
  -2.731        -12.324
  -2.729        -12.322
  -2.726        -12.320
  -2.724        -12.318
  -2.722        -12.315
  -2.720        -12.313
  -2.718        -12.311
  -2.716        -12.308
  -2.713        -12.306
  -2.711        -12.304
  -2.709        -12.301
  -2.707        -12.299
  -2.705        -12.297
  -2.703        -12.295
  -2.700        -12.293
  -2.698        -12.290
  -2.696        -12.288
  -2.694        -12.286
  -2.692        -12.284
  -2.689        -12.282
  -2.687        -12.280
  -2.685        -12.277
  -2.683        -12.276
  -2.681        -12.273
  -2.679        -12.271
  -2.677        -12.269
  -2.674        -12.267
  -2.672        -12.265
  -2.670        -12.263
  -2.668        -12.261
  -2.666        -12.259
  -2.663        -12.258
  -2.661        -12.255
  -2.659        -12.253
  -2.657        -12.252
  -2.655        -12.250
  -2.653        -12.248
  -2.650        -12.246
  -2.648        -12.244
  -2.646        -12.242
  -2.644        -12.241
  -2.642        -12.239
  -2.640        -12.237
  -2.637        -12.235
  -2.635        -12.233
  -2.633        -12.232
  -2.631        -12.230
  -2.629        -12.228
  -2.626        -12.226
  -2.624        -12.225
  -2.622        -12.223
  -2.620        -12.221
  -2.618        -12.220
  -2.616        -12.218
  -2.614        -12.216
  -2.611        -12.215
  -2.609        -12.213
  -2.607        -12.212
  -2.605        -12.210
  -2.603        -12.209
  -2.600        -12.207
  -2.598        -12.206
  -2.596        -12.204
  -2.594        -12.203
  -2.592        -12.201
  -2.590        -12.200
  -2.587        -12.199
  -2.585        -12.197
  -2.583        -12.196
  -2.581        -12.194
  -2.579        -12.193
  -2.577        -12.192
  -2.574        -12.191
  -2.572        -12.189
  -2.570        -12.188
  -2.568        -12.187
  -2.566        -12.186
  -2.564        -12.184
  -2.561        -12.183
  -2.559        -12.182
  -2.557        -12.181
  -2.555        -12.180
  -2.553        -12.179
  -2.551        -12.177
  -2.548        -12.176
  -2.546        -12.175
  -2.544        -12.174
  -2.542        -12.173
  -2.540        -12.172
  -2.538        -12.171
  -2.535        -12.171
  -2.533        -12.170
  -2.531        -12.169
  -2.529        -12.168
  -2.527        -12.167
  -2.525        -12.166
  -2.522        -12.165
  -2.520        -12.165
  -2.518        -12.164
  -2.516        -12.163
  -2.514        -12.162
  -2.511        -12.162
  -2.509        -12.161
  -2.507        -12.160
  -2.505        -12.160
  -2.503        -12.159
  -2.501        -12.158
  -2.498        -12.158
  -2.496        -12.158
  -2.494        -12.157
  -2.492        -12.156
  -2.490        -12.156
  -2.488        -12.155
  -2.485        -12.155
  -2.483        -12.155
  -2.481        -12.154
  -2.479        -12.154
  -2.477        -12.154
  -2.475        -12.153
  -2.472        -12.153
  -2.470        -12.153
  -2.468        -12.153
  -2.466        -12.152
  -2.464        -12.152
  -2.462        -12.152
  -2.459        -12.152
  -2.457        -12.152
  -2.455        -12.152
  -2.453        -12.152
  -2.451        -12.152
  -2.448        -12.152
  -2.446        -12.152
  -2.444        -12.152
  -2.442        -12.152
  -2.440        -12.152
  -2.438        -12.152
  -2.435        -12.152
  -2.433        -12.152
  -2.431        -12.153
  -2.429        -12.153
  -2.427        -12.153
  -2.425        -12.154
  -2.422        -12.154
  -2.420        -12.154
  -2.418        -12.155
  -2.416        -12.155
  -2.414        -12.156
  -2.412        -12.156
  -2.409        -12.157
  -2.407        -12.157
  -2.405        -12.158
  -2.403        -12.158
  -2.401        -12.159
  -2.398        -12.160
  -2.396        -12.160
  -2.394        -12.161
  -2.392        -12.162
  -2.390        -12.163
  -2.388        -12.164
  -2.386        -12.164
  -2.383        -12.165
  -2.381        -12.166
  -2.379        -12.167
  -2.377        -12.168
  -2.375        -12.169
  -2.372        -12.170
  -2.370        -12.171
  -2.368        -12.172
  -2.366        -12.174
  -2.364        -12.175
  -2.362        -12.176
  -2.359        -12.177
  -2.357        -12.179
  -2.355        -12.180
  -2.353        -12.181
  -2.351        -12.183
  -2.349        -12.184
  -2.346        -12.186
  -2.344        -12.187
  -2.342        -12.189
  -2.340        -12.190
  -2.338        -12.192
  -2.336        -12.194
  -2.333        -12.195
  -2.331        -12.197
  -2.329        -12.199
  -2.327        -12.201
  -2.325        -12.202
  -2.323        -12.204
  -2.320        -12.206
  -2.318        -12.208
  -2.316        -12.210
  -2.314        -12.212
  -2.312        -12.214
  -2.309        -12.216
  -2.307        -12.219
  -2.305        -12.221
  -2.303        -12.223
  -2.301        -12.225
  -2.299        -12.228
  -2.297        -12.230
  -2.294        -12.232
  -2.292        -12.235
  -2.290        -12.237
  -2.288        -12.240
  -2.286        -12.242
  -2.283        -12.245
  -2.281        -12.248
  -2.279        -12.250
  -2.277        -12.253
  -2.275        -12.256
  -2.273        -12.259
  -2.270        -12.261
  -2.268        -12.264
  -2.266        -12.267
  -2.264        -12.270
  -2.262        -12.273
  -2.260        -12.276
  -2.257        -12.280
  -2.255        -12.283
  -2.253        -12.286
  -2.251        -12.289
  -2.249        -12.293
  -2.247        -12.296
  -2.244        -12.299
  -2.242        -12.303
  -2.240        -12.306
  -2.238        -12.310
  -2.236        -12.313
  -2.234        -12.317
  -2.231        -12.321
  -2.229        -12.325
  -2.227        -12.328
  -2.225        -12.332
  -2.223        -12.336
  -2.220        -12.340
  -2.218        -12.344
  -2.216        -12.348
  -2.214        -12.352
  -2.212        -12.356
  -2.210        -12.361
  -2.207        -12.365
  -2.205        -12.369
  -2.203        -12.373
  -2.201        -12.378
  -2.199        -12.382
  -2.197        -12.387
  -2.194        -12.391
  -2.192        -12.396
  -2.190        -12.401
  -2.188        -12.405
  -2.186        -12.410
  -2.184        -12.415
  -2.181        -12.420
  -2.179        -12.425
  -2.177        -12.430
  -2.175        -12.435
  -2.173        -12.440
  -2.171        -12.445
  -2.168        -12.451
  -2.166        -12.456
  -2.164        -12.461
  -2.162        -12.467
  -2.160        -12.472
  -2.158        -12.478
  -2.155        -12.483
  -2.153        -12.489
  -2.151        -12.495
  -2.149        -12.500
  -2.147        -12.506
  -2.145        -12.512
  -2.142        -12.518
  -2.140        -12.524
  -2.138        -12.530
  -2.136        -12.536
  -2.134        -12.542
  -2.131        -12.549
  -2.129        -12.555
  -2.127        -12.561
  -2.125        -12.568
  -2.123        -12.574
  -2.121        -12.581
  -2.118        -12.588
  -2.116        -12.594
  -2.114        -12.601
  -2.112        -12.608
  -2.110        -12.615
  -2.108        -12.622
  -2.105        -12.629
  -2.103        -12.636
  -2.101        -12.643
  -2.099        -12.650
  -2.097        -12.658
  -2.095        -12.665
  -2.092        -12.672
  -2.090        -12.680
  -2.088        -12.687
  -2.086        -12.695
  -2.084        -12.703
  -2.082        -12.711
  -2.079        -12.718
  -2.077        -12.726
  -2.075        -12.734
  -2.073        -12.743
  -2.071        -12.751
  -2.069        -12.759
  -2.066        -12.767
  -2.064        -12.775
  -2.062        -12.784
  -2.060        -12.792
  -2.058        -12.801
  -2.056        -12.810
  -2.053        -12.818
  -2.051        -12.827
  -2.049        -12.836
  -2.047        -12.845
  -2.045        -12.854
  -2.043        -12.863
  -2.040        -12.872
  -2.038        -12.882
  -2.036        -12.891
  -2.034        -12.901
  -2.032        -12.910
  -2.029        -12.920
  -2.027        -12.929
  -2.025        -12.939
  -2.023        -12.949
  -2.021        -12.959
  -2.019        -12.969
  -2.016        -12.979
  -2.014        -12.989
  -2.012        -13.000
  -2.010        -13.010
  -2.008        -13.020
  -2.006        -13.031
  -2.003        -13.041
  -2.001        -13.052
  -1.999        -13.063
  -1.997        -13.074
  -1.995        -13.085
  -1.993        -13.096
  -1.990        -13.107
  -1.988        -13.118
  -1.986        -13.129
  -1.984        -13.141
  -1.982        -13.152
  -1.980        -13.164
  -1.977        -13.175
  -1.975        -13.187
  -1.973        -13.199
  -1.971        -13.211
  -1.969        -13.223
  -1.967        -13.235
  -1.964        -13.247
  -1.962        -13.260
  -1.960        -13.272
  -1.958        -13.284
  -1.956        -13.297
  -1.953        -13.310
  -1.951        -13.322
  -1.949        -13.335
  -1.947        -13.348
  -1.945        -13.361
  -1.943        -13.375
  -1.940        -13.387
  -1.938        -13.401
  -1.936        -13.414
  -1.934        -13.428
  -1.932        -13.442
  -1.930        -13.455
  -1.927        -13.469
  -1.925        -13.483
  -1.923        -13.497
  -1.921        -13.511
  -1.919        -13.526
  -1.917        -13.540
  -1.914        -13.555
  -1.912        -13.569
  -1.910        -13.584
  -1.908        -13.599
  -1.906        -13.614
  -1.904        -13.629
  -1.901        -13.644
  -1.899        -13.659
  -1.897        -13.674
  -1.895        -13.690
  -1.893        -13.705
  -1.891        -13.721
  -1.888        -13.737
  -1.886        -13.753
  -1.884        -13.769
  -1.882        -13.785
  -1.880        -13.801
  -1.877        -13.817
  -1.875        -13.834
  -1.873        -13.850
  -1.871        -13.867
  -1.869        -13.884
  -1.867        -13.901
  -1.864        -13.918
  -1.862        -13.935
  -1.860        -13.952
  -1.858        -13.970
  -1.856        -13.987
  -1.853        -14.005
  -1.851        -14.022
  -1.849        -14.040
  -1.847        -14.058
  -1.845        -14.076
  -1.843        -14.095
  -1.841        -14.113
  -1.838        -14.132
  -1.836        -14.150
  -1.834        -14.169
  -1.832        -14.188
  -1.830        -14.207
  -1.828        -14.226
  -1.825        -14.245
  -1.823        -14.265
  -1.821        -14.284
  -1.819        -14.303
  -1.817        -14.323
  -1.815        -14.343
  -1.812        -14.363
  -1.810        -14.384
  -1.808        -14.404
  -1.806        -14.424
  -1.804        -14.445
  -1.801        -14.466
  -1.799        -14.486
  -1.797        -14.507
  -1.795        -14.528
  -1.793        -14.549
  -1.791        -14.571
  -1.788        -14.593
  -1.786        -14.614
  -1.784        -14.636
  -1.782        -14.658
  -1.780        -14.680
  -1.777        -14.703
  -1.775        -14.725
  -1.773        -14.748
  -1.771        -14.770
  -1.769        -14.793
  -1.767        -14.816
  -1.764        -14.839
  -1.763        -14.862
  -1.760        -14.886
  -1.758        -14.909
  -1.756        -14.933
  -1.754        -14.957
  -1.752        -14.981
  -1.749        -15.005
  -1.747        -15.030
  -1.745        -15.054
  -1.743        -15.079
  -1.741        -15.103
  -1.739        -15.128
  -1.736        -15.154
  -1.734        -15.179
  -1.732        -15.204
  -1.730        -15.230
  -1.728        -15.255
  -1.726        -15.281
  -1.723        -15.307
  -1.721        -15.334
  -1.719        -15.360
  -1.717        -15.387
  -1.715        -15.413
  -1.713        -15.440
  -1.710        -15.467
  -1.708        -15.495
  -1.706        -15.522
  -1.704        -15.549
  -1.702        -15.577
  -1.699        -15.605
  -1.697        -15.633
  -1.695        -15.661
  -1.693        -15.690
  -1.691        -15.719
  -1.689        -15.747
  -1.686        -15.776
  -1.684        -15.805
  -1.682        -15.835
  -1.680        -15.864
  -1.678        -15.894
  -1.675        -15.924
  -1.673        -15.954
  -1.671        -15.984
  -1.669        -16.014
  -1.667        -16.045
  -1.665        -16.076
  -1.663        -16.107
  -1.660        -16.138
  -1.658        -16.169
  -1.656        -16.200
  -1.654        -16.232
  -1.652        -16.264
  -1.650        -16.296
  -1.647        -16.328
  -1.645        -16.361
  -1.643        -16.393
  -1.641        -16.426
  -1.639        -16.459
  -1.637        -16.492
  -1.634        -16.526
  -1.632        -16.559
  -1.630        -16.593
  -1.628        -16.627
  -1.626        -16.661
  -1.623        -16.696
  -1.621        -16.730
  -1.619        -16.765
  -1.617        -16.800
  -1.615        -16.835
  -1.613        -16.870
  -1.611        -16.906
  -1.608        -16.942
  -1.606        -16.977
  -1.604        -17.014
  -1.602        -17.050
  -1.600        -17.086
  -1.597        -17.123
  -1.595        -17.160
  -1.593        -17.197
  -1.591        -17.234
  -1.589        -17.271
  -1.587        -17.309
  -1.584        -17.346
  -1.582        -17.384
  -1.580        -17.422
  -1.578        -17.460
  -1.576        -17.498
  -1.573        -17.537
  -1.571        -17.575
  -1.569        -17.614
  -1.567        -17.653
  -1.565        -17.691
  -1.563        -17.731
  -1.561        -17.769
  -1.558        -17.808
  -1.556        -17.847
  -1.554        -17.886
  -1.552        -17.926
  -1.550        -17.965
  -1.547        -18.004
  -1.545        -18.042
  -1.543        -18.081
  -1.541        -18.120
  -1.539        -18.158
  -1.537        -18.196
  -1.534        -18.234
  -1.532        -18.272
  -1.530        -18.309
  -1.528        -18.346
  -1.526        -18.382
  -1.524        -18.418
  -1.522        -18.453
  -1.519        -18.488
  -1.517        -18.522
  -1.515        -18.555
  -1.513        -18.587
  -1.511        -18.619
  -1.508        -18.649
  -1.506        -18.679
  -1.504        -18.708
  -1.502        -18.735
  -1.500        -18.762
  -1.498        -18.787
  -1.495        -18.811
  -1.493        -18.834
  -1.491        -18.855
  -1.489        -18.876
  -1.487        -18.896
  -1.484        -18.914
  -1.482        -18.931
  -1.480        -18.946
  -1.478        -18.961
  -1.476        -18.975
  -1.474        -18.988
  -1.472        -18.999
  -1.469        -19.010
  -1.467        -19.020
  -1.465        -19.029
  -1.463        -19.038
  -1.461        -19.045
  -1.458        -19.052
  -1.456        -19.059
  -1.454        -19.064
  -1.452        -19.070
  -1.450        -19.075
  -1.448        -19.079
  -1.445        -19.083
  -1.443        -19.087
  -1.441        -19.090
  -1.439        -19.093
  -1.437        -19.096
  -1.435        -19.099
  -1.432        -19.101
  -1.430        -19.103
  -1.428        -19.106
  -1.426        -19.107
  -1.424        -19.109
  -1.422        -19.111
  -1.419        -19.112
  -1.417        -19.114
  -1.415        -19.115
  -1.413        -19.117
  -1.411        -19.118
  -1.409        -19.119
  -1.406        -19.120
  -1.404        -19.121
  -1.402        -19.122
  -1.400        -19.123
  -1.398        -19.124
  -1.396        -19.125
  -1.393        -19.126
  -1.391        -19.127
  -1.389        -19.128
  -1.387        -19.129
  -1.385        -19.129
  -1.383        -19.130
  -1.380        -19.131
  -1.378        -19.132
  -1.376        -19.133
  -1.374        -19.134
  -1.372        -19.134
  -1.370        -19.135
  -1.367        -19.136
  -1.365        -19.137
  -1.363        -19.137
  -1.361        -19.138
  -1.359        -19.139
  -1.356        -19.140
  -1.354        -19.140
  -1.352        -19.141
  -1.350        -19.142
  -1.348        -19.143
  -1.346        -19.143
  -1.343        -19.144
  -1.341        -19.145
  -1.339        -19.146
  -1.337        -19.146
  -1.335        -19.147
  -1.333        -19.148
  -1.330        -19.148
  -1.328        -19.149
  -1.326        -19.150
  -1.324        -19.151
  -1.322        -19.151
  -1.320        -19.152
  -1.317        -19.153
  -1.315        -19.153
  -1.313        -19.154
  -1.311        -19.155
  -1.309        -19.156
  -1.307        -19.156
  -1.304        -19.157
  -1.302        -19.158
  -1.300        -19.158
  -1.298        -19.159
  -1.296        -19.160
  -1.293        -19.161
  -1.291        -19.161
  -1.289        -19.162
  -1.287        -19.162
  -1.285        -19.163
  -1.283        -19.164
  -1.280        -19.164
  -1.278        -19.165
  -1.276        -19.166
  -1.274        -19.167
  -1.272        -19.167
  -1.270        -19.168
  -1.267        -19.168
  -1.265        -19.169
  -1.263        -19.170
  -1.261        -19.171
  -1.259        -19.171
  -1.257        -19.172
  -1.254        -19.172
  -1.252        -19.173
  -1.250        -19.174
  -1.248        -19.174
  -1.246        -19.175
  -1.243        -19.176
  -1.241        -19.177
  -1.239        -19.177
  -1.237        -19.178
  -1.235        -19.178
  -1.233        -19.179
  -1.231        -19.180
  -1.228        -19.181
  -1.226        -19.181
  -1.224        -19.182
  -1.222        -19.182
  -1.220        -19.183
  -1.217        -19.184
  -1.215        -19.185
  -1.213        -19.185
  -1.211        -19.186
  -1.209        -19.186
  -1.207        -19.187
  -1.204        -19.188
  -1.202        -19.188
  -1.200        -19.189
  -1.198        -19.190
  -1.196        -19.190
  -1.194        -19.191
  -1.191        -19.192
  -1.189        -19.193
  -1.187        -19.193
  -1.185        -19.194
  -1.183        -19.195
  -1.181        -19.195
  -1.178        -19.196
  -1.176        -19.197
  -1.174        -19.197
  -1.172        -19.198
  -1.170        -19.199
  -1.168        -19.199
  -1.165        -19.200
  -1.163        -19.201
  -1.161        -19.202
  -1.159        -19.203
  -1.157        -19.203
  -1.155        -19.204
  -1.152        -19.204
  -1.150        -19.205
  -1.148        -19.206
  -1.146        -19.207
  -1.144        -19.208
  -1.142        -19.209
  -1.139        -19.209
  -1.137        -19.210
  -1.135        -19.211
  -1.133        -19.212
  -1.131        -19.212
  -1.129        -19.213
  -1.126        -19.214
  -1.124        -19.215
  -1.122        -19.216
  -1.120        -19.216
  -1.118        -19.217
  -1.115        -19.218
  -1.113        -19.219
  -1.111        -19.220
  -1.109        -19.221
  -1.107        -19.221
  -1.105        -19.222
  -1.102        -19.223
  -1.100        -19.224
  -1.098        -19.225
  -1.096        -19.226
  -1.094        -19.227
  -1.092        -19.228
  -1.089        -19.229
  -1.087        -19.230
  -1.085        -19.231
  -1.083        -19.232
  -1.081        -19.233
  -1.079        -19.234
  -1.076        -19.235
  -1.074        -19.236
  -1.072        -19.237
  -1.070        -19.238
  -1.068        -19.239
  -1.066        -19.240
  -1.063        -19.241
  -1.061        -19.242
  -1.059        -19.243
  -1.057        -19.244
  -1.055        -19.246
  -1.052        -19.247
  -1.050        -19.248
  -1.048        -19.249
  -1.046        -19.251
  -1.044        -19.252
  -1.042        -19.253
  -1.039        -19.255
  -1.037        -19.256
  -1.035        -19.257
  -1.033        -19.258
  -1.031        -19.260
  -1.029        -19.261
  -1.026        -19.263
  -1.024        -19.264
  -1.022        -19.266
  -1.020        -19.267
  -1.018        -19.269
  -1.016        -19.271
  -1.013        -19.272
  -1.011        -19.274
  -1.009        -19.275
  -1.007        -19.277
  -1.005        -19.279
  -1.003        -19.280
  -1.000        -19.282
  -0.998        -19.284
  -0.996        -19.285
  -0.994        -19.287
  -0.992        -19.289
  -0.990        -19.290
  -0.987        -19.292
  -0.985        -19.293
  -0.983        -19.295
  -0.981        -19.297
  -0.979        -19.298
  -0.977        -19.300
  -0.974        -19.302
  -0.972        -19.303
  -0.970        -19.305
  -0.968        -19.306
  -0.966        -19.308
  -0.963        -19.309
  -0.961        -19.310
  -0.959        -19.312
  -0.957        -19.314
  -0.955        -19.315
  -0.953        -19.316
  -0.950        -19.318
  -0.948        -19.319
  -0.946        -19.320
  -0.944        -19.322
  -0.942        -19.323
  -0.940        -19.324
  -0.937        -19.326
  -0.935        -19.327
  -0.933        -19.328
  -0.931        -19.330
  -0.929        -19.331
  -0.927        -19.332
  -0.924        -19.333
  -0.922        -19.334
  -0.920        -19.335
  -0.918        -19.336
  -0.916        -19.338
  -0.914        -19.339
  -0.911        -19.340
  -0.909        -19.341
  -0.907        -19.342
  -0.905        -19.343
  -0.903        -19.344
  -0.900        -19.345
  -0.898        -19.346
  -0.896        -19.347
  -0.894        -19.348
  -0.892        -19.349
  -0.890        -19.350
  -0.887        -19.351
  -0.885        -19.352
  -0.883        -19.352
  -0.881        -19.353
  -0.879        -19.354
  -0.877        -19.355
  -0.874        -19.356
  -0.872        -19.356
  -0.870        -19.357
  -0.868        -19.358
  -0.866        -19.359
  -0.864        -19.359
  -0.862        -19.360
  -0.859        -19.361
  -0.857        -19.361
  -0.855        -19.362
  -0.853        -19.362
  -0.851        -19.363
  -0.848        -19.364
  -0.846        -19.364
  -0.844        -19.365
  -0.842        -19.365
  -0.840        -19.365
  -0.838        -19.365
  -0.835        -19.366
  -0.833        -19.366
  -0.831        -19.366
  -0.829        -19.367
  -0.827        -19.367
  -0.825        -19.367
  -0.822        -19.368
  -0.820        -19.368
  -0.818        -19.368
  -0.816        -19.367
  -0.814        -19.367
  -0.812        -19.367
  -0.809        -19.367
  -0.807        -19.367
  -0.805        -19.367
  -0.803        -19.367
  -0.801        -19.367
  -0.799        -19.367
  -0.796        -19.367
  -0.794        -19.366
  -0.792        -19.366
  -0.790        -19.366
  -0.788        -19.366
  -0.785        -19.365
  -0.783        -19.365
  -0.781        -19.365
  -0.779        -19.364
  -0.777        -19.364
  -0.774        -19.363
  -0.772        -19.363
  -0.770        -19.362
  -0.768        -19.362
  -0.766        -19.361
  -0.764        -19.361
  -0.762        -19.360
  -0.759        -19.360
  -0.757        -19.359
  -0.755        -19.358
  -0.753        -19.357
  -0.751        -19.357
  -0.748        -19.356
  -0.746        -19.355
  -0.744        -19.354
  -0.742        -19.354
  -0.740        -19.353
  -0.738        -19.352
  -0.736        -19.351
  -0.733        -19.350
  -0.731        -19.349
  -0.729        -19.348
  -0.727        -19.347
  -0.725        -19.346
  -0.723        -19.345
  -0.720        -19.344
  -0.718        -19.343
  -0.716        -19.342
  -0.714        -19.341
  -0.712        -19.339
  -0.709        -19.338
  -0.707        -19.337
  -0.705        -19.336
  -0.703        -19.335
  -0.701        -19.334
  -0.699        -19.332
  -0.697        -19.331
  -0.694        -19.330
  -0.692        -19.328
  -0.690        -19.327
  -0.688        -19.325
  -0.685        -19.324
  -0.683        -19.323
  -0.681        -19.321
  -0.679        -19.320
  -0.677        -19.318
  -0.675        -19.317
  -0.673        -19.315
  -0.670        -19.313
  -0.668        -19.312
  -0.666        -19.310
  -0.664        -19.309
  -0.662        -19.307
  -0.659        -19.305
  -0.657        -19.304
  -0.655        -19.302
  -0.653        -19.300
  -0.651        -19.298
  -0.649        -19.297
  -0.647        -19.295
  -0.644        -19.293
  -0.642        -19.291
  -0.640        -19.290
  -0.638        -19.288
  -0.636        -19.286
  -0.633        -19.284
  -0.631        -19.282
  -0.629        -19.280
  -0.627        -19.278
  -0.625        -19.277
  -0.623        -19.275
  -0.621        -19.273
  -0.618        -19.271
  -0.616        -19.269
  -0.614        -19.267
  -0.612        -19.265
  -0.610        -19.263
  -0.608        -19.261
  -0.605        -19.259
  -0.603        -19.257
  -0.601        -19.255
  -0.599        -19.253
  -0.596        -19.251
  -0.594        -19.249
  -0.592        -19.247
  -0.590        -19.245
  -0.588        -19.243
  -0.586        -19.240
  -0.584        -19.238
  -0.581        -19.236
  -0.579        -19.234
  -0.577        -19.231
  -0.575        -19.229
  -0.573        -19.227
  -0.571        -19.225
  -0.568        -19.222
  -0.566        -19.220
  -0.564        -19.217
  -0.562        -19.215
  -0.560        -19.212
  -0.557        -19.210
  -0.555        -19.208
  -0.553        -19.205
  -0.551        -19.203
  -0.549        -19.200
  -0.547        -19.198
  -0.544        -19.195
  -0.542        -19.193
  -0.540        -19.190
  -0.538        -19.188
  -0.536        -19.185
  -0.534        -19.183
  -0.531        -19.180
  -0.529        -19.178
  -0.527        -19.175
  -0.525        -19.172
  -0.523        -19.170
  -0.521        -19.167
  -0.518        -19.165
  -0.516        -19.162
  -0.514        -19.160
  -0.512        -19.157
  -0.510        -19.154
  -0.507        -19.152
  -0.505        -19.149
  -0.503        -19.147
  -0.501        -19.144
  -0.499        -19.141
  -0.497        -19.139
  -0.495        -19.136
  -0.492        -19.133
  -0.490        -19.131
  -0.488        -19.128
  -0.486        -19.125
  -0.484        -19.123
  -0.482        -19.120
  -0.479        -19.117
  -0.477        -19.115
  -0.475        -19.112
  -0.473        -19.109
  -0.471        -19.107
  -0.468        -19.104
  -0.466        -19.101
  -0.464        -19.098
  -0.462        -19.096
  -0.460        -19.093
  -0.458        -19.090
  -0.455        -19.087
  -0.453        -19.085
  -0.451        -19.082
  -0.449        -19.079
  -0.447        -19.076
  -0.445        -19.074
  -0.442        -19.071
  -0.440        -19.068
  -0.438        -19.065
  -0.436        -19.062
  -0.434        -19.059
  -0.432        -19.057
  -0.429        -19.054
  -0.427        -19.051
  -0.425        -19.048
  -0.423        -19.045
  -0.421        -19.042
  -0.419        -19.040
  -0.416        -19.037
  -0.414        -19.034
  -0.412        -19.031
  -0.410        -19.029
  -0.408        -19.026
  -0.405        -19.023
  -0.403        -19.020
  -0.401        -19.018
  -0.399        -19.015
  -0.397        -19.012
  -0.395        -19.010
  -0.392        -19.007
  -0.390        -19.004
  -0.388        -19.001
  -0.386        -18.999
  -0.384        -18.996
  -0.382        -18.994
  -0.379        -18.991
  -0.377        -18.989
  -0.375        -18.986
  -0.373        -18.984
  -0.371        -18.981
  -0.369        -18.979
  -0.366        -18.976
  -0.364        -18.974
  -0.362        -18.971
  -0.360        -18.969
  -0.358        -18.967
  -0.356        -18.964
  -0.353        -18.962
  -0.351        -18.959
  -0.349        -18.957
  -0.347        -18.955
  -0.345        -18.952
  -0.343        -18.950
  -0.340        -18.948
  -0.338        -18.945
  -0.336        -18.943
  -0.334        -18.941
  -0.332        -18.938
  -0.330        -18.936
  -0.327        -18.934
  -0.325        -18.931
  -0.323        -18.929
  -0.321        -18.927
  -0.319        -18.925
  -0.316        -18.923
  -0.314        -18.920
  -0.312        -18.918
  -0.310        -18.916
  -0.308        -18.914
  -0.306        -18.912
  -0.303        -18.909
  -0.301        -18.908
  -0.299        -18.906
  -0.297        -18.904
  -0.295        -18.903
  -0.293        -18.901
  -0.290        -18.900
  -0.288        -18.898
  -0.286        -18.896
  -0.284        -18.895
  -0.282        -18.893
  -0.280        -18.892
  -0.277        -18.891
  -0.275        -18.889
  -0.273        -18.888
  -0.271        -18.887
  -0.269        -18.886
  -0.267        -18.884
  -0.264        -18.883
  -0.262        -18.882
  -0.260        -18.881
  -0.258        -18.880
  -0.256        -18.878
  -0.253        -18.878
  -0.251        -18.876
  -0.249        -18.875
  -0.247        -18.874
  -0.245        -18.873
  -0.243        -18.872
  -0.241        -18.871
  -0.238        -18.870
  -0.236        -18.870
  -0.234        -18.869
  -0.232        -18.868
  -0.230        -18.867
  -0.227        -18.866
  -0.225        -18.865
  -0.223        -18.865
  -0.221        -18.864
  -0.219        -18.863
  -0.217        -18.862
  -0.214        -18.862
  -0.212        -18.861
  -0.210        -18.860
  -0.208        -18.860
  -0.206        -18.859
  -0.204        -18.859
  -0.201        -18.858
  -0.199        -18.857
  -0.197        -18.857
  -0.195        -18.857
  -0.193        -18.856
  -0.191        -18.856
  -0.188        -18.856
  -0.186        -18.856
  -0.184        -18.856
  -0.182        -18.855
  -0.180        -18.855
  -0.178        -18.855
  -0.175        -18.855
  -0.173        -18.855
  -0.171        -18.855
  -0.169        -18.855
  -0.167        -18.855
  -0.164        -18.855
  -0.162        -18.855
  -0.160        -18.855
  -0.158        -18.855
  -0.156        -18.855
  -0.154        -18.856
  -0.151        -18.856
  -0.149        -18.856
  -0.147        -18.856
  -0.145        -18.857
  -0.143        -18.857
  -0.141        -18.857
  -0.138        -18.858
  -0.136        -18.858
  -0.134        -18.859
  -0.132        -18.859
  -0.130        -18.859
  -0.128        -18.860
  -0.125        -18.860
  -0.123        -18.860
  -0.121        -18.861
  -0.119        -18.861
  -0.117        -18.862
  -0.115        -18.862
  -0.112        -18.862
  -0.110        -18.863
  -0.108        -18.863
  -0.106        -18.863
  -0.104        -18.863
  -0.102        -18.864
  -0.099        -18.864
  -0.097        -18.864
  -0.095        -18.864
  -0.093        -18.864
  -0.091        -18.865
  -0.089        -18.865
  -0.086        -18.865
  -0.084        -18.865
  -0.082        -18.865
  -0.080        -18.865
  -0.078        -18.865
  -0.075        -18.865
  -0.073        -18.866
  -0.071        -18.866
  -0.069        -18.866
  -0.067        -18.866
  -0.065        -18.866
  -0.063        -18.866
  -0.060        -18.866
  -0.058        -18.866
  -0.056        -18.866
  -0.054        -18.866
  -0.052        -18.866
  -0.049        -18.866
  -0.047        -18.867
  -0.045        -18.867
  -0.043        -18.867
  -0.041        -18.867
  -0.039        -18.867
  -0.036        -18.867
  -0.034        -18.868
  -0.032        -18.868
  -0.030        -18.868
  -0.028        -18.868
  -0.026        -18.868
  -0.023        -18.868
  -0.021        -18.868
  -0.019        -18.868
  -0.017        -18.869
  -0.015        -18.869
  -0.013        -18.869
  -0.010        -18.869
  -0.008        -18.869
  -0.006        -18.869
  -0.004        -18.869
  -0.002        -18.869
   0.000        -18.870
   0.003        -18.870
   0.005        -18.870
   0.007        -18.870
   0.009        -18.870
   0.011        -18.870
   0.013        -18.870
   0.016        -18.870
   0.018        -18.870
   0.020        -18.871
   0.022        -18.871
   0.024        -18.871
   0.027        -18.871
   0.029        -18.871
   0.031        -18.871
   0.033        -18.871
   0.035        -18.871
   0.037        -18.872
   0.040        -18.872
   0.042        -18.872
   0.044        -18.872
   0.046        -18.872
   0.048        -18.872
   0.050        -18.872
   0.053        -18.872
   0.055        -18.873
   0.057        -18.873
   0.059        -18.873
   0.061        -18.873
   0.063        -18.873
   0.066        -18.873
   0.068        -18.873
   0.070        -18.874
   0.072        -18.874
   0.074        -18.874
   0.076        -18.874
   0.079        -18.874
   0.081        -18.874
   0.083        -18.873
   0.085        -18.873
   0.087        -18.873
   0.089        -18.873
   0.092        -18.873
   0.094        -18.873
   0.096        -18.873
   0.098        -18.873
   0.100        -18.873
   0.103        -18.873
   0.105        -18.874
   0.107        -18.874
   0.109        -18.874
   0.111        -18.874
   0.113        -18.874
   0.116        -18.874
   0.118        -18.874
   0.120        -18.874
   0.122        -18.874
   0.124        -18.874
   0.126        -18.874
   0.128        -18.874
   0.131        -18.874
   0.133        -18.874
   0.135        -18.874
   0.137        -18.874
   0.139        -18.873
   0.142        -18.873
   0.144        -18.873
   0.146        -18.873
   0.148        -18.873
   0.150        -18.872
   0.153        -18.872
   0.155        -18.872
   0.157        -18.872
   0.159        -18.872
   0.161        -18.872
   0.163        -18.871
   0.165        -18.871
   0.168        -18.871
   0.170        -18.871
   0.172        -18.871
   0.174        -18.871
   0.176        -18.870
   0.178        -18.870
   0.181        -18.870
   0.183        -18.870
   0.185        -18.869
   0.187        -18.869
   0.189        -18.869
   0.192        -18.869
   0.194        -18.868
   0.196        -18.868
   0.198        -18.868
   0.200        -18.868
   0.202        -18.868
   0.205        -18.867
   0.207        -18.867
   0.209        -18.867
   0.211        -18.867
   0.213        -18.867
   0.215        -18.867
   0.218        -18.867
   0.220        -18.867
   0.222        -18.867
   0.224        -18.868
   0.226        -18.868
   0.229        -18.869
   0.231        -18.869
   0.233        -18.870
   0.235        -18.870
   0.237        -18.870
   0.239        -18.871
   0.241        -18.871
   0.244        -18.872
   0.246        -18.873
   0.248        -18.874
   0.250        -18.875
   0.252        -18.876
   0.254        -18.876
   0.257        -18.877
   0.259        -18.878
   0.261        -18.879
   0.263        -18.880
   0.265        -18.881
   0.267        -18.881
   0.270        -18.882
   0.272        -18.883
   0.274        -18.884
   0.276        -18.885
   0.278        -18.886
   0.281        -18.887
   0.283        -18.888
   0.285        -18.889
   0.287        -18.890
   0.289        -18.891
   0.291        -18.892
   0.293        -18.893
   0.296        -18.894
   0.298        -18.895
   0.300        -18.896
   0.302        -18.897
   0.305        -18.898
   0.307        -18.899
   0.309        -18.901
   0.311        -18.902
   0.313        -18.903
   0.315        -18.904
   0.318        -18.905
   0.320        -18.907
   0.322        -18.908
   0.324        -18.909
   0.326        -18.910
   0.328        -18.912
   0.330        -18.913
   0.333        -18.914
   0.335        -18.915
   0.337        -18.917
   0.339        -18.918
   0.341        -18.919
   0.344        -18.921
   0.346        -18.922
   0.348        -18.924
   0.350        -18.925
   0.352        -18.926
   0.354        -18.928
   0.356        -18.929
   0.359        -18.931
   0.361        -18.932
   0.363        -18.934
   0.365        -18.935
   0.367        -18.936
   0.369        -18.938
   0.372        -18.939
   0.374        -18.941
   0.376        -18.942
   0.378        -18.944
   0.380        -18.945
   0.383        -18.946
   0.385        -18.948
   0.387        -18.950
   0.389        -18.951
   0.391        -18.953
   0.393        -18.955
   0.396        -18.957
   0.398        -18.959
   0.400        -18.960
   0.402        -18.962
   0.404        -18.964
   0.406        -18.966
   0.409        -18.968
   0.411        -18.970
   0.413        -18.973
   0.415        -18.975
   0.417        -18.977
   0.420        -18.979
   0.422        -18.981
   0.424        -18.984
   0.426        -18.986
   0.428        -18.988
   0.430        -18.990
   0.432        -18.993
   0.435        -18.995
   0.437        -18.998
   0.439        -19.000
   0.441        -19.002
   0.443        -19.005
   0.446        -19.007
   0.448        -19.010
   0.450        -19.012
   0.452        -19.015
   0.454        -19.018
   0.456        -19.021
   0.459        -19.024
   0.461        -19.026
   0.463        -19.029
   0.465        -19.032
   0.467        -19.035
   0.469        -19.038
   0.472        -19.040
   0.474        -19.043
   0.476        -19.046
   0.478        -19.049
   0.480        -19.051
   0.482        -19.054
   0.485        -19.057
   0.487        -19.059
   0.489        -19.062
   0.491        -19.063
   0.493        -19.064
   0.495        -19.064
   0.498        -19.065
   0.500        -19.066
   0.502        -19.067
   0.504        -19.068
   0.506        -19.069
   0.510        -19.070
   0.512        -19.069
   0.513        -19.069
   0.515        -19.069
   0.517        -19.068
   0.519        -19.067
   0.522        -19.067
   0.524        -19.066
   0.526        -19.066
   0.528        -19.065
   0.530        -19.064
   0.532        -19.064
   0.535        -19.063
   0.537        -19.062
   0.539        -19.062
   0.541        -19.061
   0.543        -19.060
   0.545        -19.060
   0.548        -19.059
   0.550        -19.058
   0.552        -19.058
   0.554        -19.057
   0.556        -19.056
   0.558        -19.056
   0.561        -19.055
   0.563        -19.054
   0.565        -19.053
   0.567        -19.053
   0.569        -19.052
   0.572        -19.052
   0.574        -19.051
   0.576        -19.050
   0.578        -19.050
   0.580        -19.049
   0.582        -19.048
   0.585        -19.048
   0.587        -19.047
   0.589        -19.046
   0.591        -19.046
   0.593        -19.045
   0.595        -19.044
   0.598        -19.044
   0.600        -19.043
   0.602        -19.043
   0.604        -19.042
   0.606        -19.042
   0.608        -19.041
   0.611        -19.041
   0.613        -19.040
   0.615        -19.039
   0.617        -19.039
   0.619        -19.038
   0.621        -19.037
   0.624        -19.037
   0.626        -19.036
   0.628        -19.035
   0.630        -19.034
   0.632        -19.034
   0.634        -19.033
   0.637        -19.032
   0.639        -19.031
   0.641        -19.030
   0.643        -19.030
   0.645        -19.029
   0.647        -19.028
   0.650        -19.027
   0.652        -19.026
   0.654        -19.025
   0.656        -19.025
   0.658        -19.024
   0.660        -19.023
   0.663        -19.022
   0.665        -19.021
   0.667        -19.020
   0.669        -19.019
   0.671        -19.018
   0.673        -19.018
   0.676        -19.017
   0.678        -19.016
   0.680        -19.015
   0.682        -19.013
   0.684        -19.013
   0.687        -19.011
   0.689        -19.011
   0.691        -19.009
   0.693        -19.009
   0.695        -19.008
   0.697        -19.007
   0.700        -19.006
   0.702        -19.006
   0.704        -19.006
   0.706        -19.006
   0.708        -19.006
   0.710        -19.005
   0.713        -19.005
   0.715        -19.005
   0.717        -19.005
   0.719        -19.005
   0.721        -19.004
   0.723        -19.004
   0.726        -19.004
   0.728        -19.004
   0.730        -19.004
   0.732        -19.004
   0.734        -19.003
   0.736        -19.003
   0.739        -19.003
   0.741        -19.003
   0.743        -19.002
   0.745        -19.002
   0.747        -19.001
   0.750        -19.000
   0.752        -19.000
   0.754        -18.999
   0.756        -18.999
   0.758        -18.998
   0.760        -18.997
   0.762        -18.997
   0.765        -18.996
   0.767        -18.996
   0.769        -18.995
   0.771        -18.995
   0.773        -18.994
   0.776        -18.994
   0.778        -18.993
   0.780        -18.993
   0.782        -18.993
   0.784        -18.992
   0.786        -18.992
   0.789        -18.992
   0.791        -18.992
   0.793        -18.992
   0.795        -18.992
   0.797        -18.992
   0.799        -18.991
   0.802        -18.991
   0.804        -18.992
   0.806        -18.992
   0.808        -18.993
   0.810        -18.993
   0.812        -18.993
   0.815        -18.994
   0.817        -18.994
   0.819        -18.994
   0.821        -18.995
   0.823        -18.996
   0.825        -18.998
   0.828        -19.000
   0.830        -19.002
   0.832        -19.003
   0.834        -19.005
   0.836        -19.007
   0.838        -19.009
   0.841        -19.011
   0.843        -19.013
   0.845        -19.015
   0.847        -19.018
   0.849        -19.020
   0.852        -19.023
   0.854        -19.025
   0.856        -19.028
   0.858        -19.030
   0.860        -19.033
   0.862        -19.035
   0.865        -19.038
   0.867        -19.040
   0.869        -19.043
   0.871        -19.045
   0.873        -19.048
   0.875        -19.051
   0.878        -19.053
   0.880        -19.056
   0.882        -19.059
   0.884        -19.061
   0.886        -19.064
   0.888        -19.067
   0.891        -19.071
   0.893        -19.074
   0.895        -19.077
   0.897        -19.081
   0.899        -19.084
   0.901        -19.087
   0.904        -19.090
   0.906        -19.094
   0.908        -19.098
   0.910        -19.102
   0.912        -19.106
   0.915        -19.110
   0.917        -19.113
   0.919        -19.117
   0.921        -19.121
   0.923        -19.125
   0.925        -19.129
   0.928        -19.134
   0.930        -19.138
   0.932        -19.143
   0.934        -19.148
   0.936        -19.153
   0.938        -19.158
   0.941        -19.162
   0.943        -19.167
   0.945        -19.172
   0.947        -19.177
   0.949        -19.183
   0.951        -19.190
   0.954        -19.197
   0.956        -19.203
   0.958        -19.210
   0.960        -19.217
   0.962        -19.223
   0.964        -19.230
   0.967        -19.236
   0.969        -19.242
   0.971        -19.247
   0.973        -19.252
   0.975        -19.257
   0.977        -19.263
   0.980        -19.268
   0.982        -19.272
   0.984        -19.278
   0.986        -19.283
   0.988        -19.293
   0.990        -19.303
   0.993        -19.309
   0.995        -19.315
   0.997        -19.321
   0.999        -19.326
   1.001        -19.332
   1.004        -19.338
   1.006        -19.344
   1.008        -19.350
   1.010        -19.358
   1.012        -19.369
   1.014        -19.380
   1.017        -19.392
   1.019        -19.404
   1.021        -19.415
   1.023        -19.427
   1.025        -19.439
   1.027        -19.450
   1.030        -19.462
   1.032        -19.477
   1.034        -19.494
   1.036        -19.511
   1.038        -19.528
   1.040        -19.545
   1.043        -19.562
   1.045        -19.579
   1.047        -19.596
   1.049        -19.613
   1.051        -19.632
   1.053        -19.659
   1.056        -19.687
   1.058        -19.715
   1.060        -19.743
   1.062        -19.771
   1.064        -19.799
   1.066        -19.827
   1.069        -19.856
   1.071        -19.884
   1.073        -19.931
   1.075        -19.997
   1.077        -20.064
   1.079        -20.130
   1.082        -20.196
   1.084        -20.262
   1.086        -20.329
   1.088        -20.395
   1.090        -20.461
   1.093        -20.531
   1.095        -20.634
   1.097        -20.746
   1.099        -20.859
   1.101        -20.971
   1.103        -21.084
   1.106        -21.196
   1.108        -21.309
   1.110        -21.421
   1.112        -21.548
   1.114        -21.616
   1.117        -21.619
   1.119        -21.622
   1.121        -21.625
   1.123        -21.628
   1.125        -21.631
   1.127        -21.634
   1.129        -21.637
   1.131        -21.640
   1.134        -21.644
   1.136        -21.647
   1.138        -21.650
   1.140        -21.653
   1.143        -21.656
   1.145        -21.659
   1.147        -21.663
   1.149        -21.666
   1.151        -21.669
   1.153        -21.672
   1.155        -21.674
   1.158        -21.676
   1.160        -21.678
   1.162        -21.681
   1.164        -21.683
   1.166        -21.685
   1.169        -21.687
   1.171        -21.690
   1.173        -21.692
   1.175        -21.694
   1.177        -21.697
   1.180        -21.699
   1.181        -21.702
   1.184        -21.704
   1.186        -21.707
   1.188        -21.709
   1.190        -21.712
   1.192        -21.714
   1.195        -21.717
   1.197        -21.719
   1.199        -21.721
   1.201        -21.724
   1.203        -21.726
   1.205        -21.728
   1.208        -21.731
   1.210        -21.733
   1.212        -21.735
   1.214        -21.737
   1.216        -21.740
   1.218        -21.742
   1.220        -21.745
   1.223        -21.747
   1.225        -21.749
   1.227        -21.752
   1.229        -21.754
   1.232        -21.757
   1.234        -21.759
   1.236        -21.762
   1.238        -21.764
   1.240        -21.765
   1.242        -21.767
   1.245        -21.768
   1.247        -21.770
   1.249        -21.771
   1.251        -21.773
   1.253        -21.774
   1.255        -21.776
   1.258        -21.777
   1.260        -21.779
   1.262        -21.781
   1.264        -21.782
   1.266        -21.784
   1.268        -21.786
   1.270        -21.787
   1.273        -21.789
   1.275        -21.791
   1.277        -21.793
   1.279        -21.794
   1.281        -21.797
   1.284        -21.799
   1.286        -21.801
   1.288        -21.803
   1.290        -21.806
   1.292        -21.808
   1.294        -21.810
   1.297        -21.812
   1.299        -21.814
   1.301        -21.817
   1.303        -21.820
   1.305        -21.823
   1.307        -21.826
   1.310        -21.828
   1.312        -21.831
   1.314        -21.834
   1.316        -21.837
   1.318        -21.840
   1.320        -21.843
   1.323        -21.848
   1.325        -21.852
   1.327        -21.857
   1.329        -21.861
   1.331        -21.866
   1.334        -21.870
   1.336        -21.875
   1.338        -21.880
   1.340        -21.884
   1.342        -21.889
   1.344        -21.894
   1.346        -21.900
   1.349        -21.905
   1.351        -21.910
   1.353        -21.916
   1.355        -21.921
   1.357        -21.926
   1.359        -21.932
   1.362        -21.937
   1.364        -21.943
   1.366        -21.948
   1.368        -21.954
   1.370        -21.959
   1.373        -21.965
   1.375        -21.970
   1.377        -21.976
   1.379        -21.981
   1.381        -21.987
   1.383        -21.991
   1.386        -21.992
   1.388        -21.994
   1.390        -21.996
   1.392        -21.997
   1.394        -21.999
   1.397        -22.001
   1.399        -22.002
   1.401        -22.004
   1.403        -22.006
   1.405        -22.008
   1.407        -22.010
   1.410        -22.012
   1.412        -22.015
   1.414        -22.017
   1.416        -22.019
   1.418        -22.022
   1.420        -22.024
   1.423        -22.026
   1.425        -22.029
   1.427        -22.032
   1.429        -22.035
   1.431        -22.038
   1.433        -22.040
   1.436        -22.043
   1.438        -22.046
   1.440        -22.049
   1.442        -22.052
   1.444        -22.055
   1.446        -22.058
   1.449        -22.062
   1.451        -22.065
   1.453        -22.069
   1.455        -22.072
   1.457        -22.076
   1.460        -22.079
   1.462        -22.083
   1.464        -22.086
   1.466        -22.090
   1.468        -22.093
   1.470        -22.097
   1.472        -22.101
   1.475        -22.104
   1.477        -22.108
   1.479        -22.112
   1.481        -22.115
   1.483        -22.119
   1.486        -22.122
   1.488        -22.126
   1.490        -22.129
   1.492        -22.131
   1.494        -22.134
   1.496        -22.137
   1.498        -22.140
   1.501        -22.143
   1.503        -22.146
   1.505        -22.149
   1.507        -22.152
   1.509        -22.153
   1.512        -22.153
   1.514        -22.154
   1.516        -22.155
   1.518        -22.155
   1.520        -22.156
   1.522        -22.157
   1.525        -22.157
   1.527        -22.158
   1.529        -22.157
   1.531        -22.152
   1.533        -22.147
   1.535        -22.142
   1.538        -22.137
   1.540        -22.132
   1.542        -22.127
   1.544        -22.122
   1.546        -22.117
   1.549        -22.112
   1.551        -22.103
   1.553        -22.092
   1.555        -22.081
   1.557        -22.070
   1.559        -22.059
   1.561        -22.048
   1.564        -22.037
   1.566        -22.027
   1.568        -22.016
   1.570        -22.004
   1.572        -21.987
   1.575        -21.969
   1.577        -21.952
   1.579        -21.935
   1.581        -21.917
   1.583        -21.900
   1.585        -21.883
   1.588        -21.866
   1.590        -21.986
   1.592        -22.329
   1.594        -22.332
   1.596        -22.336
   1.598        -22.340
   1.601        -22.344
   1.603        -22.348
   1.605        -22.352
   1.607        -22.355
   1.609        -22.359
   1.611        -22.363
   1.614        -22.369
   1.616        -22.374
   1.618        -22.380
   1.620        -22.385
   1.622        -22.391
   1.624        -22.397
   1.627        -22.402
   1.629        -22.408
   1.631        -22.413
   1.633        -22.420
   1.635        -22.427
   1.637        -22.434
   1.640        -22.441
   1.642        -22.449
   1.644        -22.456
   1.646        -22.463
   1.648        -22.470
   1.651        -22.477
   1.653        -22.485
   1.655        -22.494
   1.657        -22.505
   1.659        -22.516
   1.661        -22.527
   1.664        -22.538
   1.666        -22.549
   1.668        -22.559
   1.670        -22.570
   1.672        -22.581
   1.674        -22.594
   1.676        -22.614
   1.679        -22.635
   1.681        -22.656
   1.683        -22.677
   1.685        -22.697
   1.687        -22.718
   1.690        -22.739
   1.692        -22.760
   1.694        -22.781
   1.696        -22.842
   1.699        -22.948
   1.701        -23.041
   1.703        -23.127
   1.705        -23.212
   1.707        -23.305
   1.709        -23.397
   1.711        -23.490
   1.714        -23.592
   1.716        -23.609
   1.718        -23.639
   1.720        -23.669
   1.722        -23.706
   1.724        -23.742
   1.727        -23.779
   1.729        -23.815
   1.731        -23.852
   1.733        -23.888
   1.735        -23.925
   1.737        -23.958
   1.739        -23.983
   1.742        -24.009
   1.744        -24.035
   1.746        -24.060
   1.748        -24.086
   1.750        -24.112
   1.753        -24.138
   1.755        -24.163
   1.757        -24.188
   1.759        -24.204
   1.761        -24.217
   1.763        -24.230
   1.766        -24.243
   1.768        -24.256
   1.770        -24.269
   1.772        -24.282
   1.774        -24.295
   1.776        -24.308
   1.779        -24.318
   1.781        -24.324
   1.783        -24.329
   1.785        -24.334
   1.787        -24.339
   1.789        -24.344
   1.792        -24.349
   1.794        -24.354
   1.796        -24.359
   1.798        -24.364
   1.800        -24.367
   1.802        -24.369
   1.805        -24.370
   1.807        -24.372
   1.809        -24.374
   1.811        -24.376
   1.813        -24.378
   1.816        -24.379
   1.818        -24.381
   1.820        -24.383
   1.822        -24.384
   1.824        -24.384
   1.826        -24.385
   1.829        -24.386
   1.831        -24.387
   1.833        -24.388
   1.835        -24.388
   1.837        -24.389
   1.839        -24.390
   1.842        -24.391
   1.844        -24.391
   1.846        -24.392
   1.848        -24.392
   1.850        -24.393
   1.852        -24.393
   1.855        -24.394
   1.857        -24.394
   1.859        -24.395
   1.861        -24.395
   1.863        -24.396
   1.865        -24.396
   1.868        -24.396
   1.870        -24.397
   1.872        -24.397
   1.874        -24.397
   1.876        -24.398
   1.878        -24.398
   1.881        -24.399
   1.883        -24.399
   1.885        -24.399
   1.887        -24.400
   1.889        -24.400
   1.891        -24.400
   1.894        -24.400
   1.896        -24.401
   1.898        -24.401
   1.900        -24.401
   1.902        -24.402
   1.905        -24.402
   1.907        -24.402
   1.909        -24.402
   1.911        -24.403
   1.913        -24.403
   1.915        -24.403
   1.918        -24.403
   1.920        -24.404
   1.922        -24.404
   1.924        -24.404
   1.926        -24.404
   1.928        -24.405
   1.931        -24.405
   1.933        -24.405
   1.935        -24.405
   1.937        -24.405
   1.939        -24.406
   1.941        -24.406
   1.944        -24.406
   1.946        -24.406
   1.948        -24.406
   1.950        -24.407
   1.952        -24.407
   1.954        -24.407
   1.957        -24.407
   1.959        -24.407
   1.961        -24.407
   1.963        -24.407
   1.965        -24.407
   1.967        -24.408
   1.970        -24.408
   1.972        -24.408
   1.974        -24.408
   1.976        -24.408
   1.978        -24.408
   1.980        -24.408
   1.983        -24.408
   1.985        -24.408
   1.987        -24.408
   1.989        -24.409
   1.991        -24.408
   1.993        -24.408
   1.996        -24.408
   1.998        -24.408
   2.000        -24.409
   2.002        -24.409
   2.004        -24.409
   2.007        -24.409
   2.009        -24.409
   2.011        -24.408
   2.013        -24.408
   2.015        -24.408
   2.017        -24.408
   2.020        -24.408
   2.022        -24.408
   2.024        -24.408
   2.026        -24.408
   2.028        -24.408
   2.030        -24.408
   2.033        -24.408
   2.035        -24.407
   2.037        -24.407
   2.039        -24.407
   2.041        -24.407
   2.043        -24.407
   2.046        -24.407
   2.048        -24.407
   2.050        -24.406
   2.052        -24.406
   2.054        -24.406
   2.056        -24.406
   2.059        -24.406
   2.061        -24.405
   2.063        -24.405
   2.065        -24.405
   2.067        -24.404
   2.069        -24.404
   2.072        -24.404
   2.074        -24.404
   2.076        -24.404
   2.078        -24.403
   2.080        -24.403
   2.083        -24.403
   2.085        -24.402
   2.087        -24.402
   2.089        -24.402
   2.091        -24.402
   2.093        -24.401
   2.096        -24.401
   2.098        -24.401
   2.100        -24.401
   2.102        -24.401
   2.104        -24.401
   2.106        -24.400
   2.109        -24.400
   2.111        -24.400
   2.113        -24.399
   2.115        -24.399
   2.117        -24.398
   2.120        -24.398
   2.122        -24.397
   2.124        -24.397
   2.126        -24.396
   2.128        -24.395
   2.130        -24.395
   2.133        -24.394
   2.135        -24.394
   2.137        -24.393
   2.139        -24.392
   2.141        -24.391
   2.143        -24.391
   2.145        -24.390
   2.148        -24.389
   2.150        -24.389
   2.152        -24.388
   2.154        -24.387
   2.157        -24.387
   2.158        -24.386
   2.161        -24.385
   2.163        -24.384
   2.165        -24.383
   2.167        -24.383
   2.169        -24.382
   2.172        -24.381
   2.174        -24.381
   2.176        -24.379
   2.178        -24.379
   2.180        -24.378
   2.183        -24.377
   2.185        -24.376
   2.187        -24.375
   2.189        -24.374
   2.191        -24.373
   2.193        -24.372
   2.195        -24.372
   2.197        -24.370
   2.200        -24.369
   2.202        -24.369
   2.204        -24.368
   2.206        -24.367
   2.208        -24.366
   2.211        -24.365
   2.213        -24.364
   2.215        -24.363
   2.217        -24.362
   2.219        -24.361
   2.221        -24.360
   2.224        -24.359
   2.226        -24.358
   2.228        -24.356
   2.230        -24.356
   2.232        -24.354
   2.235        -24.353
   2.237        -24.352
   2.239        -24.351
   2.241        -24.350
   2.243        -24.349
   2.245        -24.348
   2.247        -24.346
   2.250        -24.345
   2.252        -24.344
   2.254        -24.343
   2.256        -24.342
   2.259        -24.341
   2.261        -24.339
   2.263        -24.338
   2.265        -24.337
   2.267        -24.336
   2.269        -24.334
   2.271        -24.333
   2.274        -24.332
   2.276        -24.330
   2.278        -24.329
   2.280        -24.328
   2.282        -24.326
   2.284        -24.325
   2.287        -24.324
   2.289        -24.323
   2.291        -24.321
   2.293        -24.320
   2.295        -24.318
   2.297        -24.317
   2.299        -24.315
   2.302        -24.314
   2.304        -24.313
   2.306        -24.311
   2.308        -24.310
   2.310        -24.308
   2.313        -24.307
   2.315        -24.305
   2.317        -24.304
   2.319        -24.303
   2.321        -24.301
   2.323        -24.299
   2.326        -24.298
   2.328        -24.296
   2.330        -24.295
   2.332        -24.293
   2.334        -24.292
   2.337        -24.290
   2.339        -24.289
   2.341        -24.287
   2.343        -24.286
   2.345        -24.284
   2.347        -24.282
   2.349        -24.281
   2.352        -24.279
   2.354        -24.277
   2.356        -24.276
   2.358        -24.274
   2.360        -24.273
   2.363        -24.271
   2.365        -24.269
   2.367        -24.268
   2.369        -24.266
   2.371        -24.264
   2.374        -24.263
   2.376        -24.261
   2.378        -24.259
   2.380        -24.258
   2.382        -24.256
   2.384        -24.254
   2.386        -24.253
   2.389        -24.251
   2.391        -24.249
   2.393        -24.248
   2.395        -24.246
   2.397        -24.244
   2.400        -24.243
   2.402        -24.241
   2.404        -24.240
   2.406        -24.239
   2.408        -24.238
   2.410        -24.237
   2.413        -24.236
   2.415        -24.235
   2.417        -24.235
   2.419        -24.234
   2.421        -24.233
   2.423        -24.232
   2.425        -24.231
   2.428        -24.230
   2.430        -24.230
   2.432        -24.229
   2.434        -24.228
   2.436        -24.227
   2.439        -24.227
   2.441        -24.226
   2.443        -24.225
   2.445        -24.224
   2.447        -24.223
   2.449        -24.221
   2.452        -24.220
   2.454        -24.218
   2.456        -24.217
   2.458        -24.215
   2.460        -24.213
   2.462        -24.212
   2.465        -24.210
   2.467        -24.209
   2.469        -24.207
   2.471        -24.205
   2.473        -24.204
   2.475        -24.202
   2.478        -24.201
   2.480        -24.199
   2.482        -24.197
   2.484        -24.195
   2.486        -24.194
   2.489        -24.192
   2.491        -24.191
   2.493        -24.189
   2.495        -24.188
   2.497        -24.186
   2.499        -24.184
   2.502        -24.183
   2.504        -24.181
   2.506        -24.180
   2.508        -24.178
   2.510        -24.176
   2.512        -24.175
   2.514        -24.173
   2.517        -24.172
   2.519        -24.171
   2.521        -24.169
   2.523        -24.168
   2.525        -24.166
   2.528        -24.165
   2.530        -24.163
   2.532        -24.162
   2.534        -24.160
   2.536        -24.159
   2.538        -24.158
   2.541        -24.156
   2.543        -24.155
   2.545        -24.154
   2.547        -24.152
   2.549        -24.151
   2.552        -24.150
   2.554        -24.148
   2.556        -24.147
   2.558        -24.146
   2.560        -24.145
   2.562        -24.144
   2.565        -24.143
   2.567        -24.141
   2.569        -24.140
   2.571        -24.139
   2.573        -24.138
   2.575        -24.137
   2.578        -24.136
   2.580        -24.135
   2.582        -24.134
   2.584        -24.133
   2.586        -24.132
   2.588        -24.131
   2.590        -24.130
   2.593        -24.129
   2.595        -24.128
   2.597        -24.128
   2.599        -24.127
   2.601        -24.126
   2.604        -24.125
   2.606        -24.124
   2.608        -24.124
   2.610        -24.123
   2.612        -24.122
   2.614        -24.122
   2.617        -24.122
   2.619        -24.122
   2.621        -24.122
   2.623        -24.121
   2.625        -24.121
   2.627        -24.121
   2.630        -24.121
   2.632        -24.121
   2.634        -24.121
   2.636        -24.122
   2.638        -24.123
   2.641        -24.124
   2.643        -24.125
   2.645        -24.126
   2.647        -24.127
   2.649        -24.128
   2.651        -24.129
   2.654        -24.131
   2.656        -24.134
   2.658        -24.138
   2.660        -24.140
   2.662        -24.144
   2.664        -24.147
   2.666        -24.150
   2.669        -24.153
   2.671        -24.157
   2.673        -24.160
   2.675        -24.165
   2.677        -24.171
   2.680        -24.178
   2.682        -24.184
   2.684        -24.190
   2.686        -24.196
   2.688        -24.202
   2.690        -24.209
   2.693        -24.215
   2.695        -24.221
   2.697        -24.228
   2.699        -24.235
   2.701        -24.243
   2.703        -24.250
   2.706        -24.257
   2.708        -24.264
   2.710        -24.271
   2.712        -24.278
   2.714        -24.285
   2.716        -24.292
   2.719        -24.298
   2.721        -24.304
   2.723        -24.310
   2.725        -24.317
   2.727        -24.323
   2.729        -24.329
   2.732        -24.335
   2.734        -24.341
   2.736        -24.348
   2.738        -24.353
   2.740        -24.359
   2.743        -24.365
   2.745        -24.370
   2.747        -24.376
   2.749        -24.381
   2.751        -24.387
   2.753        -24.393
   2.756        -24.398
   2.758        -24.404
   2.760        -24.409
   2.762        -24.415
   2.764        -24.420
   2.766        -24.426
   2.769        -24.431
   2.771        -24.437
   2.773        -24.442
   2.775        -24.448
   2.777        -24.453
   2.779        -24.459
   2.782        -24.464
   2.784        -24.469
   2.786        -24.474
   2.788        -24.479
   2.790        -24.485
   2.792        -24.490
   2.795        -24.495
   2.797        -24.500
   2.799        -24.505
   2.801        -24.510
   2.803        -24.516
   2.805        -24.521
   2.808        -24.526
   2.810        -24.531
   2.812        -24.536
   2.814        -24.541
   2.816        -24.546
   2.819        -24.551
   2.821        -24.556
   2.823        -24.561
   2.825        -24.566
   2.827        -24.571
   2.829        -24.576
   2.832        -24.580
   2.834        -24.585
   2.836        -24.590
   2.838        -24.595
   2.840        -24.600
   2.842        -24.605
   2.845        -24.609
   2.847        -24.614
   2.849        -24.618
   2.851        -24.623
   2.853        -24.627
   2.855        -24.632
   2.858        -24.636
   2.860        -24.640
   2.862        -24.645
   2.864        -24.649
   2.866        -24.653
   2.868        -24.657
   2.871        -24.661
   2.873        -24.665
   2.875        -24.669
   2.877        -24.673
   2.879        -24.677
   2.881        -24.681
   2.884        -24.685
   2.886        -24.690
   2.888        -24.694
   2.890        -24.698
   2.892        -24.702
   2.894        -24.707
   2.897        -24.711
   2.899        -24.715
   2.901        -24.719
   2.903        -24.724
   2.905        -24.727
   2.908        -24.731
   2.910        -24.735
   2.912        -24.739
   2.914        -24.743
   2.916        -24.747
   2.918        -24.750
   2.921        -24.754
   2.923        -24.758
   2.925        -24.762
   2.927        -24.765
   2.929        -24.768
   2.931        -24.771
   2.934        -24.774
   2.936        -24.778
   2.938        -24.781
   2.940        -24.784
   2.942        -24.787
   2.944        -24.790
   2.947        -24.793
   2.949        -24.796
   2.951        -24.799
   2.953        -24.802
   2.955        -24.805
   2.957        -24.808
   2.960        -24.811
   2.962        -24.813
   2.964        -24.816
   2.966        -24.819
   2.968        -24.822
   2.970        -24.824
   2.973        -24.827
   2.975        -24.830
   2.977        -24.832
   2.979        -24.835
   2.981        -24.838
   2.984        -24.840
   2.986        -24.843
   2.988        -24.846
   2.990        -24.848
   2.992        -24.850
   2.994        -24.853
   2.997        -24.855
   2.999        -24.858
   3.001        -24.860
   3.003        -24.863
   3.005        -24.865
   3.007        -24.867
   3.010        -24.870
   3.012        -24.872
   3.014        -24.874
   3.016        -24.876
   3.018        -24.878
   3.020        -24.881
   3.023        -24.883
   3.025        -24.885
   3.027        -24.887
   3.029        -24.889
   3.031        -24.892
   3.033        -24.894
   3.036        -24.896
   3.038        -24.898
   3.040        -24.900
   3.042        -24.902
   3.044        -24.904
   3.046        -24.906
   3.049        -24.908
   3.051        -24.910
   3.053        -24.912
   3.055        -24.915
   3.057        -24.917
   3.060        -24.919
   3.062        -24.921
   3.064        -24.923
   3.066        -24.925
   3.068        -24.927
   3.070        -24.929
   3.073        -24.931
   3.075        -24.933
   3.077        -24.935
   3.079        -24.937
   3.081        -24.939
   3.083        -24.941
   3.086        -24.943
   3.088        -24.945
   3.090        -24.947
   3.092        -24.949
   3.094        -24.951
   3.096        -24.953
   3.099        -24.954
   3.101        -24.956
   3.103        -24.958
   3.105        -24.960
   3.107        -24.962
   3.109        -24.964
   3.112        -24.965
   3.114        -24.967
   3.116        -24.969
   3.118        -24.971
   3.120        -24.972
   3.123        -24.974
   3.125        -24.975
   3.127        -24.977
   3.129        -24.979
   3.131        -24.980
   3.133        -24.982
   3.136        -24.984
   3.138        -24.985
   3.140        -24.987
   3.142        -24.988
   3.144        -24.990
   3.146        -24.991
   3.149        -24.993
   3.151        -24.994
   3.153        -24.996
   3.155        -24.998
   3.157        -24.999
   3.159        -25.001
   3.162        -25.002
   3.164        -25.004
   3.166        -25.005
   3.168        -25.007
   3.170        -25.008
   3.172        -25.010
   3.175        -25.011
   3.177        -25.013
   3.179        -25.014
   3.181        -25.016
   3.183        -25.017
   3.185        -25.019
   3.188        -25.020
   3.190        -25.022
   3.192        -25.023
   3.194        -25.025
   3.196        -25.026
   3.199        -25.028
   3.201        -25.029
   3.203        -25.031
   3.205        -25.032
   3.207        -25.033
   3.209        -25.035
   3.212        -25.037
   3.214        -25.038
   3.216        -25.040
   3.218        -25.042
   3.220        -25.043
   3.222        -25.045
   3.225        -25.046
   3.227        -25.048
   3.229        -25.050
   3.231        -25.051
   3.233        -25.053
   3.236        -25.055
   3.237        -25.056
   3.240        -25.058
   3.242        -25.060
   3.244        -25.061
   3.246        -25.063
   3.248        -25.065
   3.251        -25.066
   3.253        -25.068
   3.255        -25.069
   3.257        -25.071
   3.259        -25.072
   3.261        -25.073
   3.263        -25.075
   3.266        -25.076
   3.268        -25.078
   3.270        -25.079
   3.272        -25.080
   3.274        -25.081
   3.277        -25.083
   3.279        -25.084
   3.281        -25.085
   3.283        -25.085
   3.285        -25.086
   3.287        -25.087
   3.290        -25.088
   3.292        -25.089
   3.294        -25.090
   3.296        -25.090
   3.298        -25.091
   3.301        -25.093
   3.303        -25.094
   3.305        -25.095
   3.307        -25.097
   3.309        -25.098
   3.311        -25.099
   3.313        -25.101
   3.316        -25.102
   3.318        -25.104
   3.320        -25.105
   3.322        -25.107
   3.324        -25.108
   3.327        -25.110
   3.329        -25.111
   3.331        -25.112
   3.333        -25.114
   3.335        -25.115
   3.337        -25.117
   3.340        -25.118
   3.342        -25.120
   3.344        -25.121
   3.346        -25.123
   3.348        -25.124
   3.350        -25.125
   3.352        -25.127
   3.355        -25.128
   3.357        -25.130
   3.359        -25.131
   3.361        -25.133
   3.363        -25.134
   3.366        -25.136
   3.368        -25.137
   3.370        -25.138
   3.372        -25.140
   3.374        -25.141
   3.376        -25.143
   3.379        -25.144
   3.381        -25.146
   3.383        -25.147
   3.385        -25.148
   3.387        -25.150
   3.389        -25.151
   3.392        -25.152
   3.394        -25.153
   3.396        -25.155
   3.398        -25.156
   3.400        -25.157
   3.402        -25.158
   3.405        -25.160
   3.407        -25.161
   3.409        -25.162
   3.411        -25.163
   3.413        -25.165
   3.416        -25.166
   3.418        -25.167
   3.420        -25.168
   3.422        -25.169
   3.424        -25.170
   3.426        -25.172
   3.429        -25.173
   3.431        -25.174
   3.433        -25.175
   3.435        -25.176
   3.437        -25.178
   3.439        -25.179
   3.442        -25.180
   3.444        -25.181
   3.446        -25.182
   3.448        -25.184
   3.450        -25.185
   3.452        -25.186
   3.455        -25.187
   3.457        -25.188
   3.459        -25.190
   3.461        -25.191
   3.463        -25.192
   3.466        -25.193
   3.468        -25.195
   3.470        -25.196
   3.472        -25.197
   3.474        -25.198
   3.476        -25.199
   3.478        -25.201
   3.481        -25.202
   3.483        -25.203
   3.485        -25.204
   3.487        -25.205
   3.489        -25.207
   3.492        -25.208
   3.494        -25.209
   3.496        -25.210
   3.498        -25.211
   3.500        -25.212
   3.502        -25.214
   3.505        -25.215
   3.507        -25.216
   3.509        -25.217
   3.511        -25.218
   3.513        -25.219
   3.515        -25.220
   3.518        -25.221
   3.520        -25.223
   3.522        -25.224
   3.524        -25.225
   3.526        -25.226
   3.528        -25.227
   3.531        -25.228
   3.533        -25.229
   3.535        -25.230
   3.537        -25.231
   3.539        -25.232
   3.541        -25.233
   3.544        -25.235
   3.546        -25.236
   3.548        -25.237
   3.550        -25.238
   3.552        -25.239
   3.555        -25.240
   3.557        -25.241
   3.559        -25.242
   3.561        -25.243
   3.563        -25.244
   3.565        -25.246
   3.568        -25.247
   3.570        -25.248
   3.572        -25.249
   3.574        -25.250
   3.576        -25.251
   3.578        -25.252
   3.581        -25.253
   3.583        -25.254
   3.585        -25.255
   3.587        -25.256
   3.589        -25.257
   3.591        -25.258
   3.594        -25.259
   3.596        -25.260
   3.598        -25.261
   3.600        -25.262
   3.602        -25.263
   3.604        -25.264
   3.607        -25.265
   3.609        -25.266
   3.611        -25.267
   3.613        -25.268
   3.615        -25.269
   3.617        -25.270
   3.620        -25.271
   3.622        -25.272
   3.624        -25.273
   3.626        -25.274
   3.628        -25.275
   3.630        -25.276
   3.633        -25.277
   3.635        -25.278
   3.637        -25.278
   3.639        -25.279
   3.641        -25.280
   3.644        -25.281
   3.646        -25.282
   3.648        -25.283
   3.650        -25.284
   3.652        -25.285
   3.654        -25.286
   3.657        -25.287
   3.659        -25.288
   3.661        -25.288
   3.663        -25.289
   3.665        -25.290
   3.667        -25.291
   3.670        -25.292
   3.672        -25.293
   3.674        -25.294
   3.676        -25.295
   3.678        -25.296
   3.680        -25.296
   3.683        -25.297
   3.685        -25.298
   3.687        -25.299
   3.689        -25.300
   3.691        -25.301
   3.693        -25.302
   3.696        -25.302
   3.698        -25.303
   3.700        -25.304
   3.702        -25.305
   3.704        -25.306
   3.706        -25.307
   3.709        -25.307
   3.711        -25.308
   3.713        -25.309
   3.715        -25.310
   3.717        -25.311
   3.719        -25.311
   3.722        -25.312
   3.724        -25.313
   3.726        -25.314
   3.728        -25.315
   3.730        -25.316
   3.733        -25.316
   3.735        -25.317
   3.737        -25.318
   3.739        -25.319
   3.741        -25.320
   3.743        -25.320
   3.746        -25.321
   3.748        -25.322
   3.750        -25.323
   3.752        -25.324
   3.754        -25.325
   3.756        -25.325
   3.759        -25.326
   3.761        -25.327
   3.763        -25.328
   3.765        -25.329
   3.767        -25.330
   3.769        -25.330
   3.772        -25.331
   3.774        -25.332
   3.776        -25.333
   3.778        -25.334
   3.780        -25.335
   3.782        -25.336
   3.785        -25.337
   3.787        -25.338
   3.789        -25.339
   3.791        -25.340
   3.793        -25.341
   3.795        -25.342
   3.798        -25.343
   3.800        -25.345
   3.802        -25.347
   3.804        -25.349
   3.806        -25.351
   3.809        -25.353
   3.811        -25.355
   3.813        -25.356
   3.815        -25.358
   3.817        -25.360
   3.819        -25.363
   3.822        -25.366
   3.824        -25.370
   3.826        -25.373
   3.828        -25.377
   3.830        -25.380
   3.832        -25.384
   3.835        -25.387
   3.837        -25.391
   3.839        -25.394
   3.841        -25.397
   3.843        -25.400
   3.845        -25.403
   3.848        -25.405
   3.850        -25.408
   3.852        -25.410
   3.854        -25.413
   3.856        -25.416
   3.858        -25.418
   3.861        -25.421
   3.863        -25.421
   3.865        -25.422
   3.867        -25.423
   3.869        -25.424
   3.871        -25.424
   3.874        -25.425
   3.876        -25.426
   3.878        -25.427
   3.880        -25.427
   3.882        -25.428
   3.885        -25.429
   3.887        -25.430
   3.889        -25.431
   3.891        -25.431
   3.899        -25.434
   3.912        -25.439
   3.925        -25.444
   3.938        -25.449
   3.951        -25.454
   3.964        -25.458
   3.977        -25.462
   3.990        -25.467
   4.003        -25.471
   4.016        -25.475
   4.029        -25.479
   4.042        -25.483
   4.055        -25.488
   4.068        -25.492
   4.081        -25.496
   4.094        -25.500
   4.107        -25.504
   4.120        -25.509
   4.133        -25.513
   4.146        -25.517
   4.159        -25.520
   4.172        -25.524
   4.185        -25.527
   4.198        -25.530
   4.211        -25.533
   4.224        -25.536
   4.237        -25.539
   4.250        -25.542
   4.263        -25.546
   4.276        -25.550
   4.289        -25.554
   4.302        -25.559
   4.315        -25.564
   4.328        -25.570
   4.341        -25.576
   4.354        -25.583
   4.367        -25.590
   4.380        -25.598
   4.393        -25.606
   4.406        -25.615
   4.420        -25.624
   4.432        -25.634
   4.445        -25.644
   4.459        -25.655
   4.471        -25.666
   4.484        -25.677
   4.498        -25.688
   4.510        -25.700
   4.524        -25.712
   4.537        -25.725
   4.550        -25.737
   4.563        -25.750
   4.576        -25.763
   4.589        -25.776
   4.602        -25.790
   4.615        -25.804
   4.628        -25.817
   4.641        -25.832
   4.654        -25.846
   4.667        -25.860
   4.680        -25.875
   4.693        -25.889
   4.706        -25.904
   4.719        -25.919
   4.732        -25.934
   4.745        -25.949
   4.758        -25.965
   4.771        -25.981
   4.784        -25.996
   4.797        -26.012
   4.810        -26.028
   4.823        -26.044
   4.836        -26.061
   4.849        -26.077
   4.862        -26.093
   4.875        -26.110
   4.888        -26.127
   4.901        -26.144
   4.914        -26.161
   4.927        -26.178
   4.940        -26.196
   4.953        -26.214
   4.966        -26.231
   4.979        -26.249
   4.992        -26.267
   5.005        -26.285
   5.018        -26.304
   5.031        -26.322
   5.044        -26.341
   5.057        -26.360
   5.070        -26.379
   5.083        -26.398
   5.096        -26.417
   5.109        -26.437
   5.123        -26.456
   5.136        -26.476
   5.149        -26.495
   5.162        -26.515
   5.175        -26.535
   5.188        -26.555
   5.201        -26.575
   5.214        -26.596
   5.227        -26.616
   5.240        -26.636
   5.253        -26.656
   5.266        -26.676
   5.279        -26.697
   5.292        -26.717
   5.305        -26.738
   5.318        -26.757
   5.331        -26.778
   5.344        -26.798
   5.357        -26.819
   5.370        -26.839
   5.383        -26.860
   5.396        -26.881
   5.409        -26.902
   5.422        -26.923
   5.435        -26.945
   5.448        -26.967
   5.461        -26.989
   5.474        -27.010
   5.487        -27.033
   5.500        -27.055
   5.513        -27.078
   5.526        -27.101
   5.539        -27.124
   5.552        -27.148
   5.565        -27.172
   5.578        -27.196
   5.591        -27.220
   5.604        -27.245
   5.617        -27.271
   5.630        -27.296
   5.643        -27.322
   5.656        -27.348
   5.669        -27.374
   5.682        -27.401
   5.695        -27.428
   5.708        -27.456
   5.721        -27.484
   5.734        -27.513
   5.748        -27.542
   5.761        -27.571
   5.774        -27.602
   5.787        -27.633
   5.800        -27.664
   5.813        -27.695
   5.826        -27.727
   5.839        -27.760
   5.852        -27.794
   5.865        -27.828
   5.878        -27.862
   5.891        -27.898
   5.904        -27.934
   5.917        -27.970
   5.930        -28.008
   5.943        -28.047
   5.956        -28.086
   5.969        -28.125
   5.982        -28.165
   5.995        -28.208
   6.008        -28.251
   6.021        -28.294
   6.034        -28.337
   6.047        -28.382
   6.060        -28.429
   6.073        -28.476
   6.086        -28.524
   6.099        -28.574
   6.112        -28.626
   6.125        -28.677
   6.138        -28.729
   6.151        -28.782
   6.164        -28.839
   6.177        -28.896
   6.190        -28.953
   6.203        -29.013
   6.216        -29.074
   6.229        -29.137
   6.242        -29.200
   6.255        -29.265
   6.268        -29.334
   6.281        -29.404
   6.294        -29.474
   6.307        -29.544
   6.320        -29.617
   6.334        -29.695
   6.346        -29.773
   6.359        -29.851
   6.372        -29.934
   6.386        -30.018
   6.399        -30.105
   6.411        -30.192
   6.425        -30.282
   6.438        -30.379
   6.451        -30.476
   6.464        -30.573
   6.477        -30.670
   6.490        -30.772
   6.503        -30.881
   6.516        -30.990
   6.529        -31.100
   6.542        -31.216
   6.555        -31.335
   6.568        -31.456
   6.581        -31.578
   6.594        -31.706
   6.607        -31.844
   6.620        -31.982
   6.633        -32.118
   6.646        -32.254
   6.659        -32.401
   6.672        -32.555
   6.685        -32.707
   6.698        -32.864
   6.711        -33.030
   6.724        -33.201
   6.737        -33.373
   6.750        -33.541
   6.763        -33.729
   6.776        -33.930
   6.789        -34.125
   6.802        -34.316
   6.815        -34.505
   6.828        -34.720
   6.841        -34.942
   6.854        -35.166
   6.867        -35.762
   6.880        -36.816
   6.893        -40.583
