# log Energy    log Jnu
# (eV)          (ergs/s/cm2/Hz/Sr)
  -6.864        -20.634
  -6.820        -20.548
  -6.777        -20.461
  -6.734        -20.374
  -6.690        -20.287
  -6.647        -20.200
  -6.603        -20.113
  -6.560        -20.027
  -6.516        -19.940
  -6.473        -19.853
  -6.430        -19.766
  -6.386        -19.679
  -6.343        -19.592
  -6.299        -19.506
  -6.256        -19.419
  -6.212        -19.332
  -6.169        -19.245
  -6.126        -19.158
  -6.082        -19.071
  -6.039        -18.985
  -5.995        -18.898
  -5.952        -18.811
  -5.908        -18.724
  -5.865        -18.638
  -5.822        -18.550
  -5.778        -18.464
  -5.735        -18.377
  -5.691        -18.290
  -5.648        -18.203
  -5.605        -18.117
  -5.561        -18.030
  -5.518        -17.943
  -5.474        -17.857
  -5.431        -17.770
  -5.387        -17.683
  -5.344        -17.596
  -5.300        -17.510
  -5.257        -17.423
  -5.214        -17.337
  -5.170        -17.250
  -5.127        -17.164
  -5.083        -17.077
  -5.040        -16.991
  -4.996        -16.904
  -4.953        -16.818
  -4.910        -16.731
  -4.866        -16.645
  -4.823        -16.559
  -4.779        -16.473
  -4.736        -16.387
  -4.692        -16.301
  -4.649        -16.215
  -4.606        -16.129
  -4.562        -16.043
  -4.519        -15.957
  -4.475        -15.872
  -4.432        -15.787
  -4.388        -15.702
  -4.345        -15.617
  -4.302        -15.532
  -4.258        -15.448
  -4.215        -15.363
  -4.171        -15.280
  -4.128        -15.196
  -4.084        -15.112
  -4.041        -15.030
  -3.998        -14.947
  -3.954        -14.865
  -3.911        -14.783
  -3.867        -14.703
  -3.824        -14.622
  -3.781        -14.543
  -3.737        -14.464
  -3.693        -14.386
  -3.650        -14.309
  -3.607        -14.234
  -3.584        -14.199
  -3.582        -14.189
  -3.580        -14.188
  -3.577        -14.185
  -3.575        -14.181
  -3.573        -14.178
  -3.571        -14.174
  -3.569        -14.170
  -3.567        -14.166
  -3.564        -14.163
  -3.562        -14.159
  -3.560        -14.155
  -3.558        -14.152
  -3.556        -14.148
  -3.554        -14.144
  -3.551        -14.141
  -3.549        -14.137
  -3.547        -14.133
  -3.545        -14.130
  -3.543        -14.126
  -3.540        -14.122
  -3.538        -14.119
  -3.536        -14.115
  -3.534        -14.111
  -3.532        -14.108
  -3.530        -14.104
  -3.528        -14.101
  -3.525        -14.097
  -3.523        -14.093
  -3.521        -14.090
  -3.519        -14.086
  -3.517        -14.083
  -3.514        -14.079
  -3.512        -14.075
  -3.510        -14.072
  -3.508        -14.068
  -3.506        -14.064
  -3.504        -14.061
  -3.502        -14.057
  -3.499        -14.054
  -3.497        -14.050
  -3.495        -14.047
  -3.493        -14.043
  -3.491        -14.040
  -3.488        -14.036
  -3.486        -14.032
  -3.484        -14.029
  -3.482        -14.025
  -3.480        -14.022
  -3.477        -14.018
  -3.475        -14.015
  -3.473        -14.011
  -3.471        -14.008
  -3.469        -14.004
  -3.467        -14.001
  -3.464        -13.997
  -3.462        -13.994
  -3.460        -13.990
  -3.458        -13.987
  -3.456        -13.983
  -3.454        -13.980
  -3.451        -13.976
  -3.449        -13.973
  -3.447        -13.970
  -3.445        -13.966
  -3.443        -13.963
  -3.441        -13.959
  -3.438        -13.956
  -3.436        -13.952
  -3.434        -13.949
  -3.432        -13.945
  -3.430        -13.942
  -3.428        -13.938
  -3.425        -13.935
  -3.423        -13.932
  -3.421        -13.928
  -3.419        -13.925
  -3.417        -13.921
  -3.415        -13.918
  -3.412        -13.915
  -3.410        -13.911
  -3.408        -13.908
  -3.406        -13.904
  -3.404        -13.901
  -3.402        -13.898
  -3.399        -13.894
  -3.397        -13.891
  -3.395        -13.888
  -3.393        -13.884
  -3.391        -13.881
  -3.389        -13.878
  -3.386        -13.874
  -3.384        -13.871
  -3.382        -13.868
  -3.380        -13.865
  -3.378        -13.861
  -3.376        -13.858
  -3.373        -13.855
  -3.371        -13.851
  -3.369        -13.848
  -3.367        -13.845
  -3.365        -13.842
  -3.362        -13.838
  -3.360        -13.835
  -3.358        -13.832
  -3.356        -13.829
  -3.354        -13.825
  -3.352        -13.822
  -3.349        -13.819
  -3.347        -13.816
  -3.345        -13.812
  -3.343        -13.809
  -3.341        -13.806
  -3.339        -13.803
  -3.336        -13.800
  -3.334        -13.797
  -3.332        -13.793
  -3.330        -13.790
  -3.328        -13.787
  -3.326        -13.784
  -3.323        -13.781
  -3.321        -13.778
  -3.319        -13.775
  -3.317        -13.771
  -3.315        -13.768
  -3.313        -13.765
  -3.310        -13.762
  -3.308        -13.759
  -3.306        -13.756
  -3.304        -13.753
  -3.302        -13.750
  -3.300        -13.747
  -3.297        -13.744
  -3.295        -13.741
  -3.293        -13.738
  -3.291        -13.735
  -3.289        -13.732
  -3.287        -13.729
  -3.284        -13.726
  -3.282        -13.723
  -3.280        -13.720
  -3.278        -13.717
  -3.276        -13.714
  -3.273        -13.711
  -3.271        -13.708
  -3.269        -13.705
  -3.267        -13.702
  -3.265        -13.699
  -3.263        -13.696
  -3.260        -13.693
  -3.258        -13.690
  -3.256        -13.687
  -3.254        -13.684
  -3.252        -13.682
  -3.250        -13.679
  -3.247        -13.676
  -3.245        -13.673
  -3.243        -13.670
  -3.241        -13.667
  -3.239        -13.664
  -3.237        -13.662
  -3.234        -13.659
  -3.232        -13.656
  -3.230        -13.653
  -3.228        -13.650
  -3.226        -13.647
  -3.224        -13.645
  -3.221        -13.642
  -3.219        -13.639
  -3.217        -13.636
  -3.215        -13.634
  -3.213        -13.631
  -3.211        -13.628
  -3.208        -13.626
  -3.206        -13.623
  -3.204        -13.620
  -3.202        -13.618
  -3.200        -13.615
  -3.197        -13.612
  -3.195        -13.610
  -3.193        -13.607
  -3.191        -13.604
  -3.189        -13.602
  -3.187        -13.599
  -3.184        -13.596
  -3.182        -13.594
  -3.180        -13.591
  -3.178        -13.589
  -3.176        -13.586
  -3.174        -13.584
  -3.171        -13.581
  -3.169        -13.578
  -3.167        -13.576
  -3.165        -13.573
  -3.163        -13.571
  -3.161        -13.569
  -3.158        -13.566
  -3.156        -13.564
  -3.154        -13.561
  -3.152        -13.559
  -3.150        -13.556
  -3.148        -13.554
  -3.145        -13.551
  -3.143        -13.549
  -3.141        -13.547
  -3.139        -13.544
  -3.137        -13.542
  -3.135        -13.540
  -3.132        -13.537
  -3.130        -13.535
  -3.128        -13.533
  -3.126        -13.530
  -3.124        -13.528
  -3.122        -13.526
  -3.119        -13.523
  -3.117        -13.521
  -3.115        -13.519
  -3.113        -13.517
  -3.111        -13.514
  -3.108        -13.512
  -3.106        -13.510
  -3.104        -13.508
  -3.102        -13.506
  -3.100        -13.504
  -3.098        -13.502
  -3.095        -13.499
  -3.093        -13.497
  -3.091        -13.495
  -3.089        -13.493
  -3.087        -13.491
  -3.085        -13.489
  -3.082        -13.487
  -3.080        -13.485
  -3.078        -13.483
  -3.076        -13.481
  -3.074        -13.479
  -3.072        -13.477
  -3.069        -13.475
  -3.067        -13.473
  -3.065        -13.471
  -3.063        -13.469
  -3.061        -13.467
  -3.059        -13.465
  -3.056        -13.463
  -3.054        -13.462
  -3.052        -13.460
  -3.050        -13.458
  -3.048        -13.456
  -3.046        -13.454
  -3.043        -13.453
  -3.041        -13.451
  -3.039        -13.449
  -3.037        -13.447
  -3.035        -13.445
  -3.032        -13.444
  -3.030        -13.442
  -3.028        -13.440
  -3.026        -13.439
  -3.024        -13.437
  -3.022        -13.436
  -3.019        -13.434
  -3.017        -13.432
  -3.015        -13.431
  -3.013        -13.429
  -3.011        -13.428
  -3.009        -13.426
  -3.006        -13.425
  -3.004        -13.423
  -3.002        -13.422
  -3.000        -13.420
  -2.998        -13.419
  -2.996        -13.417
  -2.993        -13.416
  -2.991        -13.415
  -2.989        -13.413
  -2.987        -13.412
  -2.985        -13.411
  -2.983        -13.409
  -2.980        -13.408
  -2.978        -13.407
  -2.976        -13.406
  -2.974        -13.404
  -2.972        -13.403
  -2.970        -13.402
  -2.967        -13.401
  -2.965        -13.400
  -2.963        -13.398
  -2.961        -13.397
  -2.959        -13.396
  -2.956        -13.395
  -2.954        -13.394
  -2.952        -13.393
  -2.950        -13.392
  -2.948        -13.391
  -2.946        -13.390
  -2.944        -13.389
  -2.941        -13.388
  -2.939        -13.387
  -2.937        -13.386
  -2.935        -13.385
  -2.933        -13.384
  -2.930        -13.384
  -2.928        -13.383
  -2.926        -13.382
  -2.924        -13.381
  -2.922        -13.381
  -2.920        -13.380
  -2.917        -13.379
  -2.915        -13.378
  -2.913        -13.378
  -2.911        -13.377
  -2.909        -13.376
  -2.907        -13.376
  -2.904        -13.375
  -2.902        -13.375
  -2.900        -13.374
  -2.898        -13.374
  -2.896        -13.373
  -2.894        -13.373
  -2.891        -13.372
  -2.889        -13.372
  -2.887        -13.372
  -2.885        -13.371
  -2.883        -13.371
  -2.880        -13.371
  -2.878        -13.370
  -2.876        -13.370
  -2.874        -13.370
  -2.872        -13.370
  -2.870        -13.369
  -2.867        -13.370
  -2.865        -13.369
  -2.863        -13.369
  -2.861        -13.369
  -2.859        -13.369
  -2.857        -13.369
  -2.855        -13.369
  -2.852        -13.369
  -2.850        -13.369
  -2.848        -13.369
  -2.846        -13.369
  -2.843        -13.370
  -2.842        -13.370
  -2.839        -13.370
  -2.837        -13.370
  -2.835        -13.370
  -2.833        -13.371
  -2.831        -13.371
  -2.828        -13.371
  -2.826        -13.372
  -2.824        -13.372
  -2.822        -13.372
  -2.820        -13.373
  -2.817        -13.373
  -2.815        -13.374
  -2.813        -13.375
  -2.811        -13.375
  -2.809        -13.375
  -2.807        -13.376
  -2.805        -13.377
  -2.802        -13.378
  -2.800        -13.379
  -2.798        -13.379
  -2.796        -13.380
  -2.794        -13.381
  -2.792        -13.381
  -2.789        -13.382
  -2.787        -13.384
  -2.785        -13.384
  -2.783        -13.385
  -2.781        -13.387
  -2.779        -13.387
  -2.776        -13.389
  -2.774        -13.390
  -2.772        -13.391
  -2.770        -13.392
  -2.767        -13.393
  -2.765        -13.395
  -2.763        -13.396
  -2.761        -13.397
  -2.759        -13.398
  -2.757        -13.400
  -2.754        -13.401
  -2.753        -13.403
  -2.750        -13.404
  -2.748        -13.406
  -2.746        -13.407
  -2.744        -13.409
  -2.741        -13.411
  -2.739        -13.413
  -2.737        -13.414
  -2.735        -13.416
  -2.733        -13.418
  -2.731        -13.420
  -2.729        -13.421
  -2.726        -13.423
  -2.724        -13.425
  -2.722        -13.427
  -2.720        -13.429
  -2.718        -13.431
  -2.716        -13.434
  -2.713        -13.436
  -2.711        -13.438
  -2.709        -13.440
  -2.707        -13.442
  -2.705        -13.444
  -2.703        -13.447
  -2.700        -13.449
  -2.698        -13.452
  -2.696        -13.454
  -2.694        -13.457
  -2.692        -13.459
  -2.689        -13.462
  -2.687        -13.464
  -2.685        -13.467
  -2.683        -13.470
  -2.681        -13.473
  -2.679        -13.476
  -2.677        -13.478
  -2.674        -13.481
  -2.672        -13.484
  -2.670        -13.487
  -2.668        -13.490
  -2.666        -13.493
  -2.663        -13.497
  -2.661        -13.500
  -2.659        -13.503
  -2.657        -13.506
  -2.655        -13.509
  -2.653        -13.513
  -2.650        -13.516
  -2.648        -13.520
  -2.646        -13.523
  -2.644        -13.527
  -2.642        -13.530
  -2.640        -13.534
  -2.637        -13.538
  -2.635        -13.542
  -2.633        -13.545
  -2.631        -13.549
  -2.629        -13.553
  -2.626        -13.557
  -2.624        -13.561
  -2.622        -13.565
  -2.620        -13.569
  -2.618        -13.573
  -2.616        -13.577
  -2.614        -13.582
  -2.611        -13.586
  -2.609        -13.590
  -2.607        -13.595
  -2.605        -13.599
  -2.603        -13.604
  -2.600        -13.608
  -2.598        -13.613
  -2.596        -13.618
  -2.594        -13.622
  -2.592        -13.627
  -2.590        -13.632
  -2.587        -13.637
  -2.585        -13.642
  -2.583        -13.647
  -2.581        -13.652
  -2.579        -13.657
  -2.577        -13.662
  -2.574        -13.668
  -2.572        -13.673
  -2.570        -13.678
  -2.568        -13.683
  -2.566        -13.689
  -2.564        -13.694
  -2.561        -13.700
  -2.559        -13.706
  -2.557        -13.711
  -2.555        -13.717
  -2.553        -13.723
  -2.551        -13.729
  -2.548        -13.735
  -2.546        -13.741
  -2.544        -13.747
  -2.542        -13.753
  -2.540        -13.759
  -2.538        -13.765
  -2.535        -13.772
  -2.533        -13.778
  -2.531        -13.784
  -2.529        -13.791
  -2.527        -13.797
  -2.525        -13.804
  -2.522        -13.811
  -2.520        -13.818
  -2.518        -13.825
  -2.516        -13.831
  -2.514        -13.838
  -2.511        -13.845
  -2.509        -13.852
  -2.507        -13.860
  -2.505        -13.867
  -2.503        -13.874
  -2.501        -13.881
  -2.498        -13.889
  -2.496        -13.897
  -2.494        -13.904
  -2.492        -13.912
  -2.490        -13.919
  -2.488        -13.927
  -2.485        -13.935
  -2.483        -13.943
  -2.481        -13.951
  -2.479        -13.959
  -2.477        -13.967
  -2.475        -13.975
  -2.472        -13.984
  -2.470        -13.992
  -2.468        -14.000
  -2.466        -14.009
  -2.464        -14.018
  -2.462        -14.026
  -2.459        -14.035
  -2.457        -14.044
  -2.455        -14.053
  -2.453        -14.062
  -2.451        -14.071
  -2.448        -14.080
  -2.446        -14.089
  -2.444        -14.098
  -2.442        -14.108
  -2.440        -14.117
  -2.438        -14.126
  -2.435        -14.136
  -2.433        -14.146
  -2.431        -14.156
  -2.429        -14.165
  -2.427        -14.175
  -2.425        -14.185
  -2.422        -14.195
  -2.420        -14.206
  -2.418        -14.216
  -2.416        -14.226
  -2.414        -14.236
  -2.412        -14.247
  -2.409        -14.258
  -2.407        -14.268
  -2.405        -14.279
  -2.403        -14.290
  -2.401        -14.301
  -2.398        -14.312
  -2.396        -14.323
  -2.394        -14.334
  -2.392        -14.345
  -2.390        -14.357
  -2.388        -14.368
  -2.386        -14.380
  -2.383        -14.391
  -2.381        -14.403
  -2.379        -14.415
  -2.377        -14.427
  -2.375        -14.439
  -2.372        -14.451
  -2.370        -14.463
  -2.368        -14.475
  -2.366        -14.488
  -2.364        -14.500
  -2.362        -14.513
  -2.359        -14.526
  -2.357        -14.538
  -2.355        -14.551
  -2.353        -14.564
  -2.351        -14.577
  -2.349        -14.590
  -2.346        -14.604
  -2.344        -14.617
  -2.342        -14.630
  -2.340        -14.644
  -2.338        -14.657
  -2.336        -14.671
  -2.333        -14.685
  -2.331        -14.699
  -2.329        -14.713
  -2.327        -14.727
  -2.325        -14.742
  -2.323        -14.756
  -2.320        -14.771
  -2.318        -14.785
  -2.316        -14.800
  -2.314        -14.814
  -2.312        -14.829
  -2.309        -14.844
  -2.307        -14.859
  -2.305        -14.875
  -2.303        -14.890
  -2.301        -14.905
  -2.299        -14.921
  -2.297        -14.936
  -2.294        -14.952
  -2.292        -14.968
  -2.290        -14.984
  -2.288        -15.000
  -2.286        -15.017
  -2.283        -15.033
  -2.281        -15.049
  -2.279        -15.066
  -2.277        -15.082
  -2.275        -15.099
  -2.273        -15.116
  -2.270        -15.133
  -2.268        -15.150
  -2.266        -15.168
  -2.264        -15.185
  -2.262        -15.203
  -2.260        -15.220
  -2.257        -15.238
  -2.255        -15.256
  -2.253        -15.274
  -2.251        -15.292
  -2.249        -15.310
  -2.247        -15.328
  -2.244        -15.347
  -2.242        -15.366
  -2.240        -15.384
  -2.238        -15.403
  -2.236        -15.422
  -2.234        -15.441
  -2.231        -15.460
  -2.229        -15.480
  -2.227        -15.499
  -2.225        -15.519
  -2.223        -15.539
  -2.220        -15.559
  -2.218        -15.579
  -2.216        -15.599
  -2.214        -15.619
  -2.212        -15.639
  -2.210        -15.660
  -2.207        -15.681
  -2.205        -15.701
  -2.203        -15.722
  -2.201        -15.744
  -2.199        -15.765
  -2.197        -15.786
  -2.194        -15.808
  -2.192        -15.829
  -2.190        -15.851
  -2.188        -15.873
  -2.186        -15.895
  -2.184        -15.917
  -2.181        -15.940
  -2.179        -15.962
  -2.177        -15.985
  -2.175        -16.008
  -2.173        -16.031
  -2.171        -16.054
  -2.168        -16.077
  -2.166        -16.100
  -2.164        -16.124
  -2.162        -16.148
  -2.160        -16.171
  -2.158        -16.195
  -2.155        -16.219
  -2.153        -16.244
  -2.151        -16.268
  -2.149        -16.293
  -2.147        -16.318
  -2.145        -16.342
  -2.142        -16.367
  -2.140        -16.393
  -2.138        -16.418
  -2.136        -16.444
  -2.134        -16.469
  -2.131        -16.495
  -2.129        -16.521
  -2.127        -16.547
  -2.125        -16.573
  -2.123        -16.600
  -2.121        -16.627
  -2.118        -16.653
  -2.116        -16.680
  -2.114        -16.707
  -2.112        -16.734
  -2.110        -16.762
  -2.108        -16.790
  -2.105        -16.817
  -2.103        -16.845
  -2.101        -16.873
  -2.099        -16.901
  -2.097        -16.930
  -2.095        -16.958
  -2.092        -16.987
  -2.090        -17.016
  -2.088        -17.045
  -2.086        -17.074
  -2.084        -17.103
  -2.082        -17.133
  -2.079        -17.162
  -2.077        -17.192
  -2.075        -17.221
  -2.073        -17.251
  -2.071        -17.282
  -2.069        -17.312
  -2.066        -17.342
  -2.064        -17.373
  -2.062        -17.403
  -2.060        -17.434
  -2.058        -17.465
  -2.056        -17.496
  -2.053        -17.527
  -2.051        -17.558
  -2.049        -17.589
  -2.047        -17.620
  -2.045        -17.651
  -2.043        -17.682
  -2.040        -17.714
  -2.038        -17.745
  -2.036        -17.776
  -2.034        -17.807
  -2.032        -17.839
  -2.029        -17.870
  -2.027        -17.901
  -2.025        -17.931
  -2.023        -17.962
  -2.021        -17.993
  -2.019        -18.023
  -2.016        -18.053
  -2.014        -18.083
  -2.012        -18.112
  -2.010        -18.141
  -2.008        -18.170
  -2.006        -18.198
  -2.003        -18.225
  -2.001        -18.252
  -1.999        -18.279
  -1.997        -18.305
  -1.995        -18.330
  -1.993        -18.355
  -1.990        -18.378
  -1.988        -18.402
  -1.986        -18.426
  -1.984        -18.450
  -1.982        -18.472
  -1.980        -18.495
  -1.977        -18.516
  -1.975        -18.537
  -1.973        -18.556
  -1.971        -18.575
  -1.969        -18.594
  -1.967        -18.611
  -1.964        -18.628
  -1.962        -18.644
  -1.960        -18.659
  -1.958        -18.673
  -1.956        -18.687
  -1.953        -18.699
  -1.951        -18.711
  -1.949        -18.723
  -1.947        -18.734
  -1.945        -18.744
  -1.943        -18.753
  -1.940        -18.762
  -1.938        -18.770
  -1.936        -18.777
  -1.934        -18.785
  -1.932        -18.791
  -1.930        -18.797
  -1.927        -18.803
  -1.925        -18.808
  -1.923        -18.813
  -1.921        -18.818
  -1.919        -18.822
  -1.917        -18.826
  -1.914        -18.830
  -1.912        -18.833
  -1.910        -18.837
  -1.908        -18.840
  -1.906        -18.843
  -1.904        -18.845
  -1.901        -18.848
  -1.899        -18.850
  -1.897        -18.852
  -1.895        -18.854
  -1.893        -18.856
  -1.891        -18.858
  -1.888        -18.859
  -1.886        -18.861
  -1.884        -18.863
  -1.882        -18.864
  -1.880        -18.866
  -1.877        -18.867
  -1.875        -18.868
  -1.873        -18.869
  -1.871        -18.871
  -1.869        -18.872
  -1.867        -18.873
  -1.864        -18.874
  -1.862        -18.875
  -1.860        -18.877
  -1.858        -18.878
  -1.856        -18.878
  -1.853        -18.880
  -1.851        -18.880
  -1.849        -18.881
  -1.847        -18.883
  -1.845        -18.883
  -1.843        -18.884
  -1.841        -18.885
  -1.838        -18.886
  -1.836        -18.887
  -1.834        -18.888
  -1.832        -18.889
  -1.830        -18.890
  -1.828        -18.891
  -1.825        -18.892
  -1.823        -18.893
  -1.821        -18.893
  -1.819        -18.894
  -1.817        -18.895
  -1.815        -18.896
  -1.812        -18.897
  -1.810        -18.898
  -1.808        -18.899
  -1.806        -18.899
  -1.804        -18.900
  -1.801        -18.901
  -1.799        -18.902
  -1.797        -18.903
  -1.795        -18.904
  -1.793        -18.904
  -1.791        -18.906
  -1.788        -18.906
  -1.786        -18.907
  -1.784        -18.908
  -1.782        -18.909
  -1.780        -18.910
  -1.777        -18.911
  -1.775        -18.912
  -1.773        -18.913
  -1.771        -18.913
  -1.769        -18.914
  -1.767        -18.915
  -1.764        -18.916
  -1.763        -18.917
  -1.760        -18.918
  -1.758        -18.919
  -1.756        -18.919
  -1.754        -18.920
  -1.752        -18.921
  -1.749        -18.922
  -1.747        -18.923
  -1.745        -18.924
  -1.743        -18.925
  -1.741        -18.925
  -1.739        -18.926
  -1.736        -18.927
  -1.734        -18.928
  -1.732        -18.929
  -1.730        -18.930
  -1.728        -18.931
  -1.726        -18.931
  -1.723        -18.932
  -1.721        -18.933
  -1.719        -18.934
  -1.717        -18.935
  -1.715        -18.936
  -1.713        -18.936
  -1.710        -18.937
  -1.708        -18.938
  -1.706        -18.939
  -1.704        -18.940
  -1.702        -18.941
  -1.699        -18.942
  -1.697        -18.942
  -1.695        -18.943
  -1.693        -18.944
  -1.691        -18.945
  -1.689        -18.946
  -1.686        -18.947
  -1.684        -18.947
  -1.682        -18.948
  -1.680        -18.949
  -1.678        -18.950
  -1.675        -18.951
  -1.673        -18.952
  -1.671        -18.953
  -1.669        -18.953
  -1.667        -18.954
  -1.665        -18.955
  -1.663        -18.956
  -1.660        -18.957
  -1.658        -18.958
  -1.656        -18.959
  -1.654        -18.960
  -1.652        -18.960
  -1.650        -18.961
  -1.647        -18.962
  -1.645        -18.963
  -1.643        -18.964
  -1.641        -18.965
  -1.639        -18.966
  -1.637        -18.966
  -1.634        -18.967
  -1.632        -18.968
  -1.630        -18.969
  -1.628        -18.970
  -1.626        -18.970
  -1.623        -18.972
  -1.621        -18.972
  -1.619        -18.973
  -1.617        -18.974
  -1.615        -18.975
  -1.613        -18.976
  -1.611        -18.977
  -1.608        -18.977
  -1.606        -18.978
  -1.604        -18.979
  -1.602        -18.980
  -1.600        -18.981
  -1.597        -18.982
  -1.595        -18.982
  -1.593        -18.983
  -1.591        -18.984
  -1.589        -18.985
  -1.587        -18.986
  -1.584        -18.987
  -1.582        -18.988
  -1.580        -18.988
  -1.578        -18.989
  -1.576        -18.990
  -1.573        -18.991
  -1.571        -18.992
  -1.569        -18.993
  -1.567        -18.994
  -1.565        -18.994
  -1.563        -18.995
  -1.561        -18.996
  -1.558        -18.997
  -1.556        -18.998
  -1.554        -18.999
  -1.552        -18.999
  -1.550        -19.000
  -1.547        -19.001
  -1.545        -19.002
  -1.543        -19.003
  -1.541        -19.004
  -1.539        -19.005
  -1.537        -19.005
  -1.534        -19.006
  -1.532        -19.007
  -1.530        -19.008
  -1.528        -19.009
  -1.526        -19.010
  -1.524        -19.010
  -1.522        -19.011
  -1.519        -19.012
  -1.517        -19.013
  -1.515        -19.014
  -1.513        -19.015
  -1.511        -19.016
  -1.508        -19.016
  -1.506        -19.017
  -1.504        -19.018
  -1.502        -19.019
  -1.500        -19.020
  -1.498        -19.021
  -1.495        -19.022
  -1.493        -19.022
  -1.491        -19.023
  -1.489        -19.024
  -1.487        -19.025
  -1.484        -19.026
  -1.482        -19.027
  -1.480        -19.027
  -1.478        -19.028
  -1.476        -19.029
  -1.474        -19.030
  -1.472        -19.031
  -1.469        -19.032
  -1.467        -19.033
  -1.465        -19.033
  -1.463        -19.034
  -1.461        -19.035
  -1.458        -19.036
  -1.456        -19.037
  -1.454        -19.038
  -1.452        -19.039
  -1.450        -19.039
  -1.448        -19.040
  -1.445        -19.041
  -1.443        -19.042
  -1.441        -19.043
  -1.439        -19.044
  -1.437        -19.045
  -1.435        -19.045
  -1.432        -19.046
  -1.430        -19.047
  -1.428        -19.048
  -1.426        -19.049
  -1.424        -19.050
  -1.422        -19.051
  -1.419        -19.051
  -1.417        -19.052
  -1.415        -19.053
  -1.413        -19.054
  -1.411        -19.055
  -1.409        -19.056
  -1.406        -19.057
  -1.404        -19.058
  -1.402        -19.059
  -1.400        -19.059
  -1.398        -19.060
  -1.396        -19.061
  -1.393        -19.062
  -1.391        -19.063
  -1.389        -19.064
  -1.387        -19.064
  -1.385        -19.065
  -1.383        -19.066
  -1.380        -19.067
  -1.378        -19.068
  -1.376        -19.069
  -1.374        -19.070
  -1.372        -19.071
  -1.370        -19.072
  -1.367        -19.072
  -1.365        -19.073
  -1.363        -19.074
  -1.361        -19.075
  -1.359        -19.076
  -1.356        -19.077
  -1.354        -19.078
  -1.352        -19.079
  -1.350        -19.080
  -1.348        -19.081
  -1.346        -19.082
  -1.343        -19.082
  -1.341        -19.083
  -1.339        -19.084
  -1.337        -19.085
  -1.335        -19.086
  -1.333        -19.087
  -1.330        -19.088
  -1.328        -19.089
  -1.326        -19.090
  -1.324        -19.091
  -1.322        -19.092
  -1.320        -19.093
  -1.317        -19.094
  -1.315        -19.095
  -1.313        -19.096
  -1.311        -19.097
  -1.309        -19.097
  -1.307        -19.098
  -1.304        -19.100
  -1.302        -19.100
  -1.300        -19.101
  -1.298        -19.102
  -1.296        -19.103
  -1.293        -19.104
  -1.291        -19.105
  -1.289        -19.106
  -1.287        -19.107
  -1.285        -19.108
  -1.283        -19.109
  -1.280        -19.110
  -1.278        -19.111
  -1.276        -19.112
  -1.274        -19.113
  -1.272        -19.114
  -1.270        -19.115
  -1.267        -19.116
  -1.265        -19.117
  -1.263        -19.118
  -1.261        -19.119
  -1.259        -19.121
  -1.257        -19.122
  -1.254        -19.123
  -1.252        -19.124
  -1.250        -19.125
  -1.248        -19.126
  -1.246        -19.127
  -1.243        -19.128
  -1.241        -19.129
  -1.239        -19.130
  -1.237        -19.131
  -1.235        -19.133
  -1.233        -19.133
  -1.231        -19.135
  -1.228        -19.136
  -1.226        -19.137
  -1.224        -19.138
  -1.222        -19.139
  -1.220        -19.140
  -1.217        -19.141
  -1.215        -19.142
  -1.213        -19.144
  -1.211        -19.145
  -1.209        -19.146
  -1.207        -19.147
  -1.204        -19.149
  -1.202        -19.150
  -1.200        -19.151
  -1.198        -19.152
  -1.196        -19.153
  -1.194        -19.155
  -1.191        -19.156
  -1.189        -19.157
  -1.187        -19.159
  -1.185        -19.160
  -1.183        -19.161
  -1.181        -19.162
  -1.178        -19.163
  -1.176        -19.165
  -1.174        -19.166
  -1.172        -19.167
  -1.170        -19.169
  -1.168        -19.170
  -1.165        -19.171
  -1.163        -19.173
  -1.161        -19.174
  -1.159        -19.176
  -1.157        -19.177
  -1.155        -19.178
  -1.152        -19.180
  -1.150        -19.181
  -1.148        -19.183
  -1.146        -19.184
  -1.144        -19.186
  -1.142        -19.187
  -1.139        -19.189
  -1.137        -19.190
  -1.135        -19.192
  -1.133        -19.193
  -1.131        -19.195
  -1.129        -19.196
  -1.126        -19.198
  -1.124        -19.200
  -1.122        -19.201
  -1.120        -19.203
  -1.118        -19.204
  -1.115        -19.206
  -1.113        -19.207
  -1.111        -19.209
  -1.109        -19.211
  -1.107        -19.212
  -1.105        -19.214
  -1.102        -19.216
  -1.100        -19.217
  -1.098        -19.219
  -1.096        -19.221
  -1.094        -19.222
  -1.092        -19.224
  -1.089        -19.226
  -1.087        -19.228
  -1.085        -19.230
  -1.083        -19.231
  -1.081        -19.233
  -1.079        -19.235
  -1.076        -19.237
  -1.074        -19.238
  -1.072        -19.240
  -1.070        -19.242
  -1.068        -19.244
  -1.066        -19.246
  -1.063        -19.248
  -1.061        -19.250
  -1.059        -19.252
  -1.057        -19.254
  -1.055        -19.255
  -1.052        -19.257
  -1.050        -19.259
  -1.048        -19.261
  -1.046        -19.263
  -1.044        -19.265
  -1.042        -19.267
  -1.039        -19.269
  -1.037        -19.271
  -1.035        -19.273
  -1.033        -19.275
  -1.031        -19.277
  -1.029        -19.279
  -1.026        -19.281
  -1.024        -19.283
  -1.022        -19.285
  -1.020        -19.287
  -1.018        -19.289
  -1.016        -19.291
  -1.013        -19.293
  -1.011        -19.295
  -1.009        -19.297
  -1.007        -19.299
  -1.005        -19.302
  -1.003        -19.304
  -1.000        -19.306
  -0.998        -19.308
  -0.996        -19.310
  -0.994        -19.312
  -0.992        -19.314
  -0.990        -19.316
  -0.987        -19.318
  -0.985        -19.320
  -0.983        -19.322
  -0.981        -19.324
  -0.979        -19.326
  -0.977        -19.328
  -0.974        -19.330
  -0.972        -19.332
  -0.970        -19.334
  -0.968        -19.336
  -0.966        -19.337
  -0.963        -19.339
  -0.961        -19.341
  -0.959        -19.343
  -0.957        -19.345
  -0.955        -19.347
  -0.953        -19.348
  -0.950        -19.350
  -0.948        -19.352
  -0.946        -19.354
  -0.944        -19.356
  -0.942        -19.357
  -0.940        -19.359
  -0.937        -19.361
  -0.935        -19.362
  -0.933        -19.364
  -0.931        -19.366
  -0.929        -19.368
  -0.927        -19.369
  -0.924        -19.371
  -0.922        -19.372
  -0.920        -19.374
  -0.918        -19.376
  -0.916        -19.377
  -0.914        -19.379
  -0.911        -19.380
  -0.909        -19.382
  -0.907        -19.383
  -0.905        -19.385
  -0.903        -19.386
  -0.900        -19.388
  -0.898        -19.389
  -0.896        -19.390
  -0.894        -19.392
  -0.892        -19.393
  -0.890        -19.395
  -0.887        -19.396
  -0.885        -19.397
  -0.883        -19.399
  -0.881        -19.400
  -0.879        -19.401
  -0.877        -19.402
  -0.874        -19.404
  -0.872        -19.405
  -0.870        -19.406
  -0.868        -19.408
  -0.866        -19.409
  -0.864        -19.410
  -0.862        -19.411
  -0.859        -19.412
  -0.857        -19.413
  -0.855        -19.414
  -0.853        -19.415
  -0.851        -19.416
  -0.848        -19.418
  -0.846        -19.419
  -0.844        -19.420
  -0.842        -19.421
  -0.840        -19.422
  -0.838        -19.422
  -0.835        -19.423
  -0.833        -19.424
  -0.831        -19.425
  -0.829        -19.426
  -0.827        -19.427
  -0.825        -19.428
  -0.822        -19.429
  -0.820        -19.430
  -0.818        -19.431
  -0.816        -19.431
  -0.814        -19.432
  -0.812        -19.433
  -0.809        -19.433
  -0.807        -19.434
  -0.805        -19.435
  -0.803        -19.435
  -0.801        -19.436
  -0.799        -19.437
  -0.796        -19.438
  -0.794        -19.438
  -0.792        -19.439
  -0.790        -19.439
  -0.788        -19.440
  -0.785        -19.441
  -0.783        -19.441
  -0.781        -19.442
  -0.779        -19.442
  -0.777        -19.442
  -0.774        -19.443
  -0.772        -19.444
  -0.770        -19.444
  -0.768        -19.444
  -0.766        -19.445
  -0.764        -19.445
  -0.762        -19.446
  -0.759        -19.446
  -0.757        -19.446
  -0.755        -19.447
  -0.753        -19.447
  -0.751        -19.448
  -0.748        -19.448
  -0.746        -19.448
  -0.744        -19.448
  -0.742        -19.449
  -0.740        -19.449
  -0.738        -19.449
  -0.736        -19.449
  -0.733        -19.449
  -0.731        -19.450
  -0.729        -19.450
  -0.727        -19.450
  -0.725        -19.450
  -0.723        -19.450
  -0.720        -19.451
  -0.718        -19.451
  -0.716        -19.451
  -0.714        -19.451
  -0.712        -19.451
  -0.709        -19.451
  -0.707        -19.451
  -0.705        -19.451
  -0.703        -19.451
  -0.701        -19.451
  -0.699        -19.451
  -0.697        -19.451
  -0.694        -19.451
  -0.692        -19.451
  -0.690        -19.451
  -0.688        -19.450
  -0.685        -19.450
  -0.683        -19.450
  -0.681        -19.450
  -0.679        -19.450
  -0.677        -19.450
  -0.675        -19.449
  -0.673        -19.449
  -0.670        -19.449
  -0.668        -19.448
  -0.666        -19.448
  -0.664        -19.448
  -0.662        -19.448
  -0.659        -19.448
  -0.657        -19.447
  -0.655        -19.447
  -0.653        -19.446
  -0.651        -19.446
  -0.649        -19.445
  -0.647        -19.445
  -0.644        -19.445
  -0.642        -19.444
  -0.640        -19.444
  -0.638        -19.443
  -0.636        -19.443
  -0.633        -19.443
  -0.631        -19.442
  -0.629        -19.441
  -0.627        -19.441
  -0.625        -19.440
  -0.623        -19.440
  -0.621        -19.439
  -0.618        -19.439
  -0.616        -19.438
  -0.614        -19.437
  -0.612        -19.437
  -0.610        -19.436
  -0.608        -19.435
  -0.605        -19.435
  -0.603        -19.434
  -0.601        -19.434
  -0.599        -19.433
  -0.596        -19.433
  -0.594        -19.432
  -0.592        -19.431
  -0.590        -19.430
  -0.588        -19.430
  -0.586        -19.429
  -0.584        -19.428
  -0.581        -19.427
  -0.579        -19.427
  -0.577        -19.426
  -0.575        -19.425
  -0.573        -19.424
  -0.571        -19.424
  -0.568        -19.423
  -0.566        -19.422
  -0.564        -19.421
  -0.562        -19.421
  -0.560        -19.420
  -0.557        -19.419
  -0.555        -19.418
  -0.553        -19.417
  -0.551        -19.417
  -0.549        -19.416
  -0.547        -19.415
  -0.544        -19.414
  -0.542        -19.414
  -0.540        -19.413
  -0.538        -19.412
  -0.536        -19.411
  -0.534        -19.410
  -0.531        -19.410
  -0.529        -19.409
  -0.527        -19.408
  -0.525        -19.407
  -0.523        -19.406
  -0.521        -19.405
  -0.518        -19.405
  -0.516        -19.404
  -0.514        -19.403
  -0.512        -19.402
  -0.510        -19.401
  -0.507        -19.400
  -0.505        -19.400
  -0.503        -19.399
  -0.501        -19.398
  -0.499        -19.397
  -0.497        -19.396
  -0.495        -19.395
  -0.492        -19.394
  -0.490        -19.393
  -0.488        -19.393
  -0.486        -19.392
  -0.484        -19.391
  -0.482        -19.390
  -0.479        -19.389
  -0.477        -19.388
  -0.475        -19.387
  -0.473        -19.386
  -0.471        -19.386
  -0.468        -19.385
  -0.466        -19.384
  -0.464        -19.383
  -0.462        -19.382
  -0.460        -19.381
  -0.458        -19.380
  -0.455        -19.379
  -0.453        -19.378
  -0.451        -19.377
  -0.449        -19.376
  -0.447        -19.376
  -0.445        -19.375
  -0.442        -19.374
  -0.440        -19.373
  -0.438        -19.372
  -0.436        -19.371
  -0.434        -19.370
  -0.432        -19.369
  -0.429        -19.368
  -0.427        -19.367
  -0.425        -19.366
  -0.423        -19.365
  -0.421        -19.364
  -0.419        -19.363
  -0.416        -19.362
  -0.414        -19.362
  -0.412        -19.361
  -0.410        -19.360
  -0.408        -19.359
  -0.405        -19.358
  -0.403        -19.357
  -0.401        -19.356
  -0.399        -19.355
  -0.397        -19.354
  -0.395        -19.353
  -0.392        -19.352
  -0.390        -19.351
  -0.388        -19.350
  -0.386        -19.349
  -0.384        -19.348
  -0.382        -19.347
  -0.379        -19.346
  -0.377        -19.345
  -0.375        -19.344
  -0.373        -19.343
  -0.371        -19.343
  -0.369        -19.342
  -0.366        -19.340
  -0.364        -19.340
  -0.362        -19.339
  -0.360        -19.338
  -0.358        -19.337
  -0.356        -19.336
  -0.353        -19.335
  -0.351        -19.334
  -0.349        -19.332
  -0.347        -19.332
  -0.345        -19.331
  -0.343        -19.329
  -0.340        -19.329
  -0.338        -19.328
  -0.336        -19.327
  -0.334        -19.326
  -0.332        -19.325
  -0.330        -19.324
  -0.327        -19.322
  -0.325        -19.321
  -0.323        -19.320
  -0.321        -19.320
  -0.319        -19.319
  -0.316        -19.318
  -0.314        -19.317
  -0.312        -19.316
  -0.310        -19.315
  -0.308        -19.314
  -0.306        -19.313
  -0.303        -19.312
  -0.301        -19.311
  -0.299        -19.311
  -0.297        -19.310
  -0.295        -19.309
  -0.293        -19.309
  -0.290        -19.308
  -0.288        -19.307
  -0.286        -19.307
  -0.284        -19.306
  -0.282        -19.305
  -0.280        -19.305
  -0.277        -19.304
  -0.275        -19.304
  -0.273        -19.303
  -0.271        -19.303
  -0.269        -19.302
  -0.267        -19.302
  -0.264        -19.301
  -0.262        -19.301
  -0.260        -19.300
  -0.258        -19.300
  -0.256        -19.300
  -0.253        -19.299
  -0.251        -19.299
  -0.249        -19.298
  -0.247        -19.298
  -0.245        -19.298
  -0.243        -19.297
  -0.241        -19.297
  -0.238        -19.296
  -0.236        -19.296
  -0.234        -19.296
  -0.232        -19.296
  -0.230        -19.295
  -0.227        -19.295
  -0.225        -19.295
  -0.223        -19.294
  -0.221        -19.294
  -0.219        -19.294
  -0.217        -19.294
  -0.214        -19.294
  -0.212        -19.293
  -0.210        -19.293
  -0.208        -19.293
  -0.206        -19.293
  -0.204        -19.293
  -0.201        -19.293
  -0.199        -19.292
  -0.197        -19.292
  -0.195        -19.292
  -0.193        -19.292
  -0.191        -19.293
  -0.188        -19.293
  -0.186        -19.293
  -0.184        -19.293
  -0.182        -19.293
  -0.180        -19.293
  -0.178        -19.293
  -0.175        -19.293
  -0.173        -19.293
  -0.171        -19.294
  -0.169        -19.294
  -0.167        -19.294
  -0.164        -19.295
  -0.162        -19.295
  -0.160        -19.295
  -0.158        -19.296
  -0.156        -19.296
  -0.154        -19.296
  -0.151        -19.297
  -0.149        -19.297
  -0.147        -19.298
  -0.145        -19.298
  -0.143        -19.299
  -0.141        -19.299
  -0.138        -19.300
  -0.136        -19.300
  -0.134        -19.300
  -0.132        -19.301
  -0.130        -19.302
  -0.128        -19.302
  -0.125        -19.303
  -0.123        -19.303
  -0.121        -19.303
  -0.119        -19.304
  -0.117        -19.304
  -0.115        -19.305
  -0.112        -19.305
  -0.110        -19.306
  -0.108        -19.306
  -0.106        -19.307
  -0.104        -19.307
  -0.102        -19.307
  -0.099        -19.308
  -0.097        -19.308
  -0.095        -19.308
  -0.093        -19.309
  -0.091        -19.309
  -0.089        -19.310
  -0.086        -19.310
  -0.084        -19.310
  -0.082        -19.310
  -0.080        -19.311
  -0.078        -19.311
  -0.075        -19.311
  -0.073        -19.312
  -0.071        -19.312
  -0.069        -19.312
  -0.067        -19.312
  -0.065        -19.313
  -0.063        -19.313
  -0.060        -19.313
  -0.058        -19.314
  -0.056        -19.314
  -0.054        -19.314
  -0.052        -19.314
  -0.049        -19.315
  -0.047        -19.315
  -0.045        -19.316
  -0.043        -19.316
  -0.041        -19.316
  -0.039        -19.317
  -0.036        -19.317
  -0.034        -19.317
  -0.032        -19.318
  -0.030        -19.318
  -0.028        -19.318
  -0.026        -19.318
  -0.023        -19.319
  -0.021        -19.319
  -0.019        -19.320
  -0.017        -19.320
  -0.015        -19.320
  -0.013        -19.321
  -0.010        -19.321
  -0.008        -19.321
  -0.006        -19.322
  -0.004        -19.322
  -0.002        -19.322
   0.000        -19.323
   0.003        -19.323
   0.005        -19.323
   0.007        -19.324
   0.009        -19.324
   0.011        -19.324
   0.013        -19.325
   0.016        -19.325
   0.018        -19.326
   0.020        -19.326
   0.022        -19.326
   0.024        -19.327
   0.027        -19.327
   0.029        -19.327
   0.031        -19.327
   0.033        -19.328
   0.035        -19.328
   0.037        -19.329
   0.040        -19.329
   0.042        -19.330
   0.044        -19.330
   0.046        -19.330
   0.048        -19.331
   0.050        -19.331
   0.053        -19.331
   0.055        -19.332
   0.057        -19.332
   0.059        -19.333
   0.061        -19.333
   0.063        -19.333
   0.066        -19.334
   0.068        -19.334
   0.070        -19.335
   0.072        -19.335
   0.074        -19.335
   0.076        -19.336
   0.079        -19.336
   0.081        -19.336
   0.083        -19.336
   0.085        -19.337
   0.087        -19.337
   0.089        -19.337
   0.092        -19.338
   0.094        -19.338
   0.096        -19.338
   0.098        -19.339
   0.100        -19.339
   0.103        -19.339
   0.105        -19.340
   0.107        -19.340
   0.109        -19.341
   0.111        -19.341
   0.113        -19.341
   0.116        -19.342
   0.118        -19.342
   0.120        -19.343
   0.122        -19.343
   0.124        -19.343
   0.126        -19.343
   0.128        -19.344
   0.131        -19.344
   0.133        -19.345
   0.135        -19.345
   0.137        -19.345
   0.139        -19.346
   0.142        -19.346
   0.144        -19.347
   0.146        -19.347
   0.148        -19.347
   0.150        -19.347
   0.153        -19.348
   0.155        -19.348
   0.157        -19.349
   0.159        -19.349
   0.161        -19.349
   0.163        -19.349
   0.165        -19.350
   0.168        -19.351
   0.170        -19.350
   0.172        -19.351
   0.174        -19.351
   0.176        -19.352
   0.178        -19.352
   0.181        -19.352
   0.183        -19.353
   0.185        -19.353
   0.187        -19.354
   0.189        -19.354
   0.192        -19.355
   0.194        -19.355
   0.196        -19.355
   0.198        -19.356
   0.200        -19.356
   0.202        -19.357
   0.205        -19.357
   0.207        -19.357
   0.209        -19.358
   0.211        -19.358
   0.213        -19.359
   0.215        -19.359
   0.218        -19.360
   0.220        -19.360
   0.222        -19.360
   0.224        -19.361
   0.226        -19.361
   0.229        -19.362
   0.231        -19.362
   0.233        -19.363
   0.235        -19.363
   0.237        -19.364
   0.239        -19.364
   0.241        -19.364
   0.244        -19.365
   0.246        -19.365
   0.248        -19.366
   0.250        -19.366
   0.252        -19.367
   0.254        -19.368
   0.257        -19.368
   0.259        -19.369
   0.261        -19.369
   0.263        -19.370
   0.265        -19.370
   0.267        -19.371
   0.270        -19.371
   0.272        -19.372
   0.274        -19.373
   0.276        -19.373
   0.278        -19.374
   0.281        -19.374
   0.283        -19.375
   0.285        -19.375
   0.287        -19.376
   0.289        -19.377
   0.291        -19.378
   0.293        -19.378
   0.296        -19.379
   0.298        -19.380
   0.300        -19.380
   0.302        -19.381
   0.305        -19.382
   0.307        -19.383
   0.309        -19.383
   0.311        -19.384
   0.313        -19.385
   0.315        -19.386
   0.318        -19.387
   0.320        -19.388
   0.322        -19.389
   0.324        -19.389
   0.326        -19.390
   0.328        -19.391
   0.330        -19.392
   0.333        -19.393
   0.335        -19.394
   0.337        -19.394
   0.339        -19.395
   0.341        -19.396
   0.344        -19.397
   0.346        -19.398
   0.348        -19.399
   0.350        -19.400
   0.352        -19.401
   0.354        -19.401
   0.356        -19.402
   0.359        -19.403
   0.361        -19.404
   0.363        -19.405
   0.365        -19.406
   0.367        -19.407
   0.369        -19.408
   0.372        -19.409
   0.374        -19.410
   0.376        -19.410
   0.378        -19.411
   0.380        -19.412
   0.383        -19.413
   0.385        -19.414
   0.387        -19.415
   0.389        -19.416
   0.391        -19.417
   0.393        -19.418
   0.396        -19.420
   0.398        -19.421
   0.400        -19.422
   0.402        -19.423
   0.404        -19.424
   0.406        -19.425
   0.409        -19.427
   0.411        -19.428
   0.413        -19.430
   0.415        -19.431
   0.417        -19.433
   0.420        -19.434
   0.422        -19.435
   0.424        -19.437
   0.426        -19.438
   0.428        -19.440
   0.430        -19.442
   0.432        -19.443
   0.435        -19.445
   0.437        -19.447
   0.439        -19.449
   0.441        -19.450
   0.443        -19.452
   0.446        -19.454
   0.448        -19.456
   0.450        -19.458
   0.452        -19.460
   0.454        -19.462
   0.456        -19.464
   0.459        -19.466
   0.461        -19.468
   0.463        -19.470
   0.465        -19.472
   0.467        -19.474
   0.469        -19.476
   0.472        -19.478
   0.474        -19.479
   0.476        -19.481
   0.478        -19.483
   0.480        -19.485
   0.482        -19.487
   0.485        -19.489
   0.487        -19.491
   0.489        -19.493
   0.491        -19.494
   0.493        -19.494
   0.495        -19.495
   0.498        -19.496
   0.500        -19.497
   0.502        -19.498
   0.504        -19.499
   0.506        -19.500
   0.510        -19.501
   0.512        -19.501
   0.513        -19.501
   0.515        -19.502
   0.517        -19.502
   0.519        -19.502
   0.522        -19.502
   0.524        -19.502
   0.526        -19.503
   0.528        -19.503
   0.530        -19.503
   0.532        -19.503
   0.535        -19.503
   0.537        -19.504
   0.539        -19.504
   0.541        -19.504
   0.543        -19.504
   0.545        -19.505
   0.548        -19.505
   0.550        -19.505
   0.552        -19.505
   0.554        -19.506
   0.556        -19.506
   0.558        -19.506
   0.561        -19.506
   0.563        -19.507
   0.565        -19.507
   0.567        -19.507
   0.569        -19.507
   0.572        -19.508
   0.574        -19.508
   0.576        -19.508
   0.578        -19.509
   0.580        -19.509
   0.582        -19.509
   0.585        -19.510
   0.587        -19.510
   0.589        -19.510
   0.591        -19.511
   0.593        -19.511
   0.595        -19.511
   0.598        -19.512
   0.600        -19.512
   0.602        -19.512
   0.604        -19.513
   0.606        -19.513
   0.608        -19.514
   0.611        -19.514
   0.613        -19.514
   0.615        -19.515
   0.617        -19.515
   0.619        -19.516
   0.621        -19.516
   0.624        -19.516
   0.626        -19.517
   0.628        -19.517
   0.630        -19.518
   0.632        -19.518
   0.634        -19.518
   0.637        -19.519
   0.639        -19.519
   0.641        -19.520
   0.643        -19.520
   0.645        -19.521
   0.647        -19.521
   0.650        -19.522
   0.652        -19.522
   0.654        -19.522
   0.656        -19.523
   0.658        -19.523
   0.660        -19.524
   0.663        -19.524
   0.665        -19.525
   0.667        -19.525
   0.669        -19.526
   0.671        -19.526
   0.673        -19.527
   0.676        -19.527
   0.678        -19.528
   0.680        -19.529
   0.682        -19.529
   0.684        -19.530
   0.687        -19.530
   0.689        -19.531
   0.691        -19.532
   0.693        -19.532
   0.695        -19.533
   0.697        -19.533
   0.700        -19.534
   0.702        -19.535
   0.704        -19.536
   0.706        -19.537
   0.708        -19.538
   0.710        -19.538
   0.713        -19.539
   0.715        -19.540
   0.717        -19.541
   0.719        -19.542
   0.721        -19.543
   0.723        -19.544
   0.726        -19.545
   0.728        -19.546
   0.730        -19.547
   0.732        -19.548
   0.734        -19.549
   0.736        -19.551
   0.739        -19.552
   0.741        -19.553
   0.743        -19.554
   0.745        -19.555
   0.747        -19.556
   0.750        -19.558
   0.752        -19.559
   0.754        -19.560
   0.756        -19.561
   0.758        -19.562
   0.760        -19.564
   0.762        -19.565
   0.765        -19.566
   0.767        -19.568
   0.769        -19.569
   0.771        -19.571
   0.773        -19.572
   0.776        -19.573
   0.778        -19.575
   0.780        -19.576
   0.782        -19.578
   0.784        -19.580
   0.786        -19.581
   0.789        -19.583
   0.791        -19.585
   0.793        -19.586
   0.795        -19.588
   0.797        -19.590
   0.799        -19.592
   0.802        -19.593
   0.804        -19.596
   0.806        -19.598
   0.808        -19.600
   0.810        -19.602
   0.812        -19.604
   0.815        -19.606
   0.817        -19.608
   0.819        -19.610
   0.821        -19.612
   0.823        -19.615
   0.825        -19.617
   0.828        -19.619
   0.830        -19.622
   0.832        -19.624
   0.834        -19.627
   0.836        -19.629
   0.838        -19.631
   0.841        -19.634
   0.843        -19.636
   0.845        -19.639
   0.847        -19.642
   0.849        -19.644
   0.852        -19.647
   0.854        -19.650
   0.856        -19.652
   0.858        -19.655
   0.860        -19.658
   0.862        -19.660
   0.865        -19.663
   0.867        -19.666
   0.869        -19.669
   0.871        -19.672
   0.873        -19.675
   0.875        -19.677
   0.878        -19.680
   0.880        -19.683
   0.882        -19.686
   0.884        -19.689
   0.886        -19.692
   0.888        -19.696
   0.891        -19.699
   0.893        -19.703
   0.895        -19.707
   0.897        -19.710
   0.899        -19.714
   0.901        -19.717
   0.904        -19.721
   0.906        -19.724
   0.908        -19.729
   0.910        -19.733
   0.912        -19.737
   0.915        -19.742
   0.917        -19.746
   0.919        -19.750
   0.921        -19.754
   0.923        -19.759
   0.925        -19.763
   0.928        -19.768
   0.930        -19.773
   0.932        -19.778
   0.934        -19.783
   0.936        -19.788
   0.938        -19.793
   0.941        -19.798
   0.943        -19.803
   0.945        -19.808
   0.947        -19.814
   0.949        -19.820
   0.951        -19.827
   0.954        -19.834
   0.956        -19.841
   0.958        -19.848
   0.960        -19.854
   0.962        -19.861
   0.964        -19.868
   0.967        -19.875
   0.969        -19.881
   0.971        -19.887
   0.973        -19.892
   0.975        -19.898
   0.977        -19.904
   0.980        -19.909
   0.982        -19.915
   0.984        -19.921
   0.986        -19.926
   0.988        -19.934
   0.990        -19.941
   0.993        -19.948
   0.995        -19.954
   0.997        -19.961
   0.999        -19.967
   1.001        -19.974
   1.004        -19.980
   1.006        -19.987
   1.008        -19.994
   1.010        -20.002
   1.012        -20.013
   1.014        -20.025
   1.017        -20.037
   1.019        -20.049
   1.021        -20.060
   1.023        -20.072
   1.025        -20.084
   1.027        -20.096
   1.030        -20.108
   1.032        -20.123
   1.034        -20.140
   1.036        -20.156
   1.038        -20.173
   1.040        -20.190
   1.043        -20.207
   1.045        -20.224
   1.047        -20.240
   1.049        -20.257
   1.051        -20.275
   1.053        -20.300
   1.056        -20.327
   1.058        -20.353
   1.060        -20.379
   1.062        -20.405
   1.064        -20.431
   1.066        -20.457
   1.069        -20.483
   1.071        -20.510
   1.073        -20.548
   1.075        -20.599
   1.077        -20.650
   1.079        -20.700
   1.082        -20.751
   1.084        -20.802
   1.086        -20.853
   1.088        -20.903
   1.090        -20.954
   1.093        -21.004
   1.095        -21.046
   1.097        -21.085
   1.099        -21.125
   1.101        -21.164
   1.103        -21.204
   1.106        -21.243
   1.108        -21.283
   1.110        -21.322
   1.112        -21.367
   1.114        -21.391
   1.117        -21.394
   1.119        -21.397
   1.121        -21.400
   1.123        -21.403
   1.125        -21.406
   1.127        -21.408
   1.129        -21.411
   1.131        -21.414
   1.134        -21.417
   1.136        -21.420
   1.138        -21.423
   1.140        -21.426
   1.143        -21.428
   1.145        -21.431
   1.147        -21.434
   1.149        -21.436
   1.151        -21.439
   1.153        -21.442
   1.155        -21.444
   1.158        -21.447
   1.160        -21.450
   1.162        -21.453
   1.164        -21.456
   1.166        -21.458
   1.169        -21.461
   1.171        -21.463
   1.173        -21.466
   1.175        -21.469
   1.177        -21.472
   1.180        -21.474
   1.181        -21.477
   1.184        -21.480
   1.186        -21.483
   1.188        -21.485
   1.190        -21.488
   1.192        -21.491
   1.195        -21.494
   1.197        -21.497
   1.199        -21.500
   1.201        -21.502
   1.203        -21.505
   1.205        -21.508
   1.208        -21.511
   1.210        -21.514
   1.212        -21.517
   1.214        -21.520
   1.216        -21.523
   1.218        -21.526
   1.220        -21.528
   1.223        -21.531
   1.225        -21.534
   1.227        -21.538
   1.229        -21.540
   1.232        -21.543
   1.234        -21.546
   1.236        -21.549
   1.238        -21.552
   1.240        -21.555
   1.242        -21.558
   1.245        -21.561
   1.247        -21.564
   1.249        -21.567
   1.251        -21.570
   1.253        -21.573
   1.255        -21.576
   1.258        -21.579
   1.260        -21.582
   1.262        -21.585
   1.264        -21.588
   1.266        -21.592
   1.268        -21.595
   1.270        -21.598
   1.273        -21.601
   1.275        -21.604
   1.277        -21.608
   1.279        -21.611
   1.281        -21.614
   1.284        -21.618
   1.286        -21.621
   1.288        -21.625
   1.290        -21.628
   1.292        -21.631
   1.294        -21.634
   1.297        -21.638
   1.299        -21.641
   1.301        -21.645
   1.303        -21.648
   1.305        -21.652
   1.307        -21.655
   1.310        -21.659
   1.312        -21.662
   1.314        -21.666
   1.316        -21.669
   1.318        -21.673
   1.320        -21.676
   1.323        -21.680
   1.325        -21.684
   1.327        -21.687
   1.329        -21.690
   1.331        -21.694
   1.334        -21.698
   1.336        -21.701
   1.338        -21.705
   1.340        -21.708
   1.342        -21.712
   1.344        -21.715
   1.346        -21.719
   1.349        -21.723
   1.351        -21.727
   1.353        -21.730
   1.355        -21.734
   1.357        -21.738
   1.359        -21.741
   1.362        -21.745
   1.364        -21.748
   1.366        -21.751
   1.368        -21.755
   1.370        -21.758
   1.373        -21.761
   1.375        -21.765
   1.377        -21.768
   1.379        -21.772
   1.381        -21.775
   1.383        -21.778
   1.386        -21.781
   1.388        -21.784
   1.390        -21.786
   1.392        -21.789
   1.394        -21.792
   1.397        -21.795
   1.399        -21.797
   1.401        -21.800
   1.403        -21.803
   1.405        -21.806
   1.407        -21.809
   1.410        -21.812
   1.412        -21.814
   1.414        -21.817
   1.416        -21.820
   1.418        -21.823
   1.420        -21.826
   1.423        -21.829
   1.425        -21.832
   1.427        -21.835
   1.429        -21.838
   1.431        -21.841
   1.433        -21.845
   1.436        -21.847
   1.438        -21.851
   1.440        -21.854
   1.442        -21.857
   1.444        -21.860
   1.446        -21.863
   1.449        -21.866
   1.451        -21.870
   1.453        -21.873
   1.455        -21.876
   1.457        -21.880
   1.460        -21.883
   1.462        -21.886
   1.464        -21.890
   1.466        -21.893
   1.468        -21.896
   1.470        -21.900
   1.472        -21.903
   1.475        -21.906
   1.477        -21.910
   1.479        -21.913
   1.481        -21.917
   1.483        -21.920
   1.486        -21.923
   1.488        -21.927
   1.490        -21.930
   1.492        -21.934
   1.494        -21.937
   1.496        -21.941
   1.498        -21.945
   1.501        -21.948
   1.503        -21.952
   1.505        -21.956
   1.507        -21.959
   1.509        -21.963
   1.512        -21.967
   1.514        -21.971
   1.516        -21.974
   1.518        -21.979
   1.520        -21.982
   1.522        -21.986
   1.525        -21.990
   1.527        -21.994
   1.529        -21.998
   1.531        -22.002
   1.533        -22.006
   1.535        -22.010
   1.538        -22.014
   1.540        -22.018
   1.542        -22.022
   1.544        -22.025
   1.546        -22.029
   1.549        -22.033
   1.551        -22.037
   1.553        -22.041
   1.555        -22.046
   1.557        -22.050
   1.559        -22.054
   1.561        -22.058
   1.564        -22.062
   1.566        -22.066
   1.568        -22.070
   1.570        -22.075
   1.572        -22.079
   1.575        -22.084
   1.577        -22.089
   1.579        -22.094
   1.581        -22.098
   1.583        -22.103
   1.585        -22.108
   1.588        -22.112
   1.590        -22.159
   1.592        -22.250
   1.594        -22.256
   1.596        -22.262
   1.598        -22.268
   1.601        -22.274
   1.603        -22.281
   1.605        -22.287
   1.607        -22.293
   1.609        -22.299
   1.611        -22.305
   1.614        -22.312
   1.616        -22.319
   1.618        -22.326
   1.620        -22.333
   1.622        -22.339
   1.624        -22.346
   1.627        -22.353
   1.629        -22.360
   1.631        -22.367
   1.633        -22.374
   1.635        -22.382
   1.637        -22.389
   1.640        -22.397
   1.642        -22.404
   1.644        -22.412
   1.646        -22.419
   1.648        -22.427
   1.651        -22.434
   1.653        -22.442
   1.655        -22.450
   1.657        -22.458
   1.659        -22.466
   1.661        -22.475
   1.664        -22.483
   1.666        -22.491
   1.668        -22.499
   1.670        -22.507
   1.672        -22.516
   1.674        -22.524
   1.676        -22.533
   1.679        -22.543
   1.681        -22.552
   1.683        -22.562
   1.685        -22.571
   1.687        -22.581
   1.690        -22.590
   1.692        -22.599
   1.694        -22.609
   1.696        -22.620
   1.699        -22.634
   1.701        -22.646
   1.703        -22.657
   1.705        -22.668
   1.707        -22.680
   1.709        -22.692
   1.711        -22.704
   1.714        -22.717
   1.716        -22.726
   1.718        -22.745
   1.720        -22.765
   1.722        -22.789
   1.724        -22.812
   1.727        -22.836
   1.729        -22.860
   1.731        -22.884
   1.733        -22.908
   1.735        -22.932
   1.737        -22.951
   1.739        -22.963
   1.742        -22.976
   1.744        -22.988
   1.746        -23.000
   1.748        -23.013
   1.750        -23.025
   1.753        -23.037
   1.755        -23.049
   1.757        -23.061
   1.759        -23.068
   1.761        -23.073
   1.763        -23.078
   1.766        -23.084
   1.768        -23.089
   1.770        -23.094
   1.772        -23.099
   1.774        -23.104
   1.776        -23.110
   1.779        -23.114
   1.781        -23.116
   1.783        -23.119
   1.785        -23.121
   1.787        -23.123
   1.789        -23.126
   1.792        -23.128
   1.794        -23.131
   1.796        -23.133
   1.798        -23.136
   1.800        -23.137
   1.802        -23.139
   1.805        -23.140
   1.807        -23.142
   1.809        -23.144
   1.811        -23.145
   1.813        -23.147
   1.816        -23.148
   1.818        -23.150
   1.820        -23.151
   1.822        -23.153
   1.824        -23.154
   1.826        -23.156
   1.829        -23.157
   1.831        -23.159
   1.833        -23.160
   1.835        -23.161
   1.837        -23.163
   1.839        -23.164
   1.842        -23.166
   1.844        -23.167
   1.846        -23.168
   1.848        -23.170
   1.850        -23.171
   1.852        -23.173
   1.855        -23.174
   1.857        -23.175
   1.859        -23.177
   1.861        -23.178
   1.863        -23.179
   1.865        -23.181
   1.868        -23.183
   1.870        -23.184
   1.872        -23.186
   1.874        -23.187
   1.876        -23.188
   1.878        -23.190
   1.881        -23.191
   1.883        -23.193
   1.885        -23.194
   1.887        -23.196
   1.889        -23.198
   1.891        -23.199
   1.894        -23.200
   1.896        -23.202
   1.898        -23.204
   1.900        -23.205
   1.902        -23.207
   1.905        -23.208
   1.907        -23.210
   1.909        -23.212
   1.911        -23.214
   1.913        -23.215
   1.915        -23.217
   1.918        -23.218
   1.920        -23.220
   1.922        -23.222
   1.924        -23.223
   1.926        -23.225
   1.928        -23.227
   1.931        -23.228
   1.933        -23.230
   1.935        -23.232
   1.937        -23.234
   1.939        -23.236
   1.941        -23.237
   1.944        -23.239
   1.946        -23.241
   1.948        -23.242
   1.950        -23.244
   1.952        -23.246
   1.954        -23.248
   1.957        -23.250
   1.959        -23.252
   1.961        -23.254
   1.963        -23.255
   1.965        -23.257
   1.967        -23.259
   1.970        -23.261
   1.972        -23.263
   1.974        -23.265
   1.976        -23.267
   1.978        -23.268
   1.980        -23.270
   1.983        -23.272
   1.985        -23.274
   1.987        -23.276
   1.989        -23.278
   1.991        -23.280
   1.993        -23.282
   1.996        -23.284
   1.998        -23.286
   2.000        -23.288
   2.002        -23.290
   2.004        -23.292
   2.007        -23.294
   2.009        -23.296
   2.011        -23.298
   2.013        -23.300
   2.015        -23.302
   2.017        -23.304
   2.020        -23.306
   2.022        -23.308
   2.024        -23.310
   2.026        -23.312
   2.028        -23.314
   2.030        -23.316
   2.033        -23.318
   2.035        -23.320
   2.037        -23.323
   2.039        -23.324
   2.041        -23.327
   2.043        -23.329
   2.046        -23.331
   2.048        -23.333
   2.050        -23.335
   2.052        -23.337
   2.054        -23.339
   2.056        -23.341
   2.059        -23.343
   2.061        -23.345
   2.063        -23.348
   2.065        -23.349
   2.067        -23.352
   2.069        -23.354
   2.072        -23.356
   2.074        -23.358
   2.076        -23.360
   2.078        -23.362
   2.080        -23.364
   2.083        -23.367
   2.085        -23.368
   2.087        -23.371
   2.089        -23.373
   2.091        -23.375
   2.093        -23.377
   2.096        -23.379
   2.098        -23.381
   2.100        -23.383
   2.102        -23.386
   2.104        -23.388
   2.106        -23.390
   2.109        -23.392
   2.111        -23.394
   2.113        -23.396
   2.115        -23.398
   2.117        -23.400
   2.120        -23.402
   2.122        -23.404
   2.124        -23.406
   2.126        -23.408
   2.128        -23.410
   2.130        -23.412
   2.133        -23.415
   2.135        -23.417
   2.137        -23.419
   2.139        -23.421
   2.141        -23.423
   2.143        -23.425
   2.145        -23.427
   2.148        -23.429
   2.150        -23.431
   2.152        -23.433
   2.154        -23.435
   2.157        -23.437
   2.158        -23.439
   2.161        -23.441
   2.163        -23.443
   2.165        -23.445
   2.167        -23.447
   2.169        -23.449
   2.172        -23.451
   2.174        -23.453
   2.176        -23.455
   2.178        -23.457
   2.180        -23.459
   2.183        -23.461
   2.185        -23.463
   2.187        -23.465
   2.189        -23.466
   2.191        -23.468
   2.193        -23.470
   2.195        -23.472
   2.197        -23.474
   2.200        -23.476
   2.202        -23.478
   2.204        -23.480
   2.206        -23.482
   2.208        -23.484
   2.211        -23.486
   2.213        -23.487
   2.215        -23.489
   2.217        -23.491
   2.219        -23.493
   2.221        -23.495
   2.224        -23.496
   2.226        -23.498
   2.228        -23.500
   2.230        -23.502
   2.232        -23.503
   2.235        -23.505
   2.237        -23.507
   2.239        -23.509
   2.241        -23.510
   2.243        -23.512
   2.245        -23.514
   2.247        -23.516
   2.250        -23.517
   2.252        -23.519
   2.254        -23.521
   2.256        -23.523
   2.259        -23.524
   2.261        -23.526
   2.263        -23.528
   2.265        -23.529
   2.267        -23.531
   2.269        -23.532
   2.271        -23.534
   2.274        -23.535
   2.276        -23.537
   2.278        -23.539
   2.280        -23.540
   2.282        -23.542
   2.284        -23.543
   2.287        -23.545
   2.289        -23.546
   2.291        -23.548
   2.293        -23.550
   2.295        -23.551
   2.297        -23.553
   2.299        -23.554
   2.302        -23.555
   2.304        -23.557
   2.306        -23.559
   2.308        -23.560
   2.310        -23.562
   2.313        -23.563
   2.315        -23.564
   2.317        -23.566
   2.319        -23.568
   2.321        -23.569
   2.323        -23.570
   2.326        -23.572
   2.328        -23.573
   2.330        -23.575
   2.332        -23.576
   2.334        -23.578
   2.337        -23.579
   2.339        -23.581
   2.341        -23.582
   2.343        -23.583
   2.345        -23.585
   2.347        -23.586
   2.349        -23.588
   2.352        -23.589
   2.354        -23.591
   2.356        -23.592
   2.358        -23.593
   2.360        -23.595
   2.363        -23.596
   2.365        -23.598
   2.367        -23.599
   2.369        -23.601
   2.371        -23.602
   2.374        -23.604
   2.376        -23.605
   2.378        -23.606
   2.380        -23.608
   2.382        -23.609
   2.384        -23.611
   2.386        -23.612
   2.389        -23.614
   2.391        -23.615
   2.393        -23.616
   2.395        -23.618
   2.397        -23.619
   2.400        -23.621
   2.402        -23.622
   2.404        -23.623
   2.406        -23.625
   2.408        -23.627
   2.410        -23.628
   2.413        -23.629
   2.415        -23.631
   2.417        -23.632
   2.419        -23.634
   2.421        -23.635
   2.423        -23.637
   2.425        -23.638
   2.428        -23.640
   2.430        -23.641
   2.432        -23.642
   2.434        -23.643
   2.436        -23.644
   2.439        -23.646
   2.441        -23.647
   2.443        -23.648
   2.445        -23.650
   2.447        -23.651
   2.449        -23.652
   2.452        -23.653
   2.454        -23.654
   2.456        -23.655
   2.458        -23.657
   2.460        -23.658
   2.462        -23.659
   2.465        -23.660
   2.467        -23.661
   2.469        -23.663
   2.471        -23.664
   2.473        -23.665
   2.475        -23.666
   2.478        -23.667
   2.480        -23.669
   2.482        -23.670
   2.484        -23.671
   2.486        -23.673
   2.489        -23.674
   2.491        -23.676
   2.493        -23.677
   2.495        -23.679
   2.497        -23.680
   2.499        -23.682
   2.502        -23.683
   2.504        -23.685
   2.506        -23.686
   2.508        -23.688
   2.510        -23.690
   2.512        -23.691
   2.514        -23.693
   2.517        -23.695
   2.519        -23.697
   2.521        -23.699
   2.523        -23.700
   2.525        -23.702
   2.528        -23.704
   2.530        -23.706
   2.532        -23.708
   2.534        -23.711
   2.536        -23.713
   2.538        -23.715
   2.541        -23.717
   2.543        -23.720
   2.545        -23.722
   2.547        -23.724
   2.549        -23.726
   2.552        -23.729
   2.554        -23.732
   2.556        -23.734
   2.558        -23.737
   2.560        -23.740
   2.562        -23.742
   2.565        -23.745
   2.567        -23.748
   2.569        -23.750
   2.571        -23.753
   2.573        -23.756
   2.575        -23.760
   2.578        -23.763
   2.580        -23.766
   2.582        -23.769
   2.584        -23.772
   2.586        -23.775
   2.588        -23.778
   2.590        -23.782
   2.593        -23.785
   2.595        -23.789
   2.597        -23.793
   2.599        -23.797
   2.601        -23.800
   2.604        -23.804
   2.606        -23.808
   2.608        -23.812
   2.610        -23.815
   2.612        -23.819
   2.614        -23.824
   2.617        -23.828
   2.619        -23.832
   2.621        -23.836
   2.623        -23.841
   2.625        -23.845
   2.627        -23.849
   2.630        -23.853
   2.632        -23.858
   2.634        -23.862
   2.636        -23.867
   2.638        -23.872
   2.641        -23.877
   2.643        -23.882
   2.645        -23.887
   2.647        -23.892
   2.649        -23.896
   2.651        -23.901
   2.654        -23.906
   2.656        -23.912
   2.658        -23.917
   2.660        -23.922
   2.662        -23.928
   2.664        -23.933
   2.666        -23.939
   2.669        -23.944
   2.671        -23.949
   2.673        -23.955
   2.675        -23.960
   2.677        -23.966
   2.680        -23.972
   2.682        -23.977
   2.684        -23.983
   2.686        -23.989
   2.688        -23.994
   2.690        -24.000
   2.693        -24.006
   2.695        -24.011
   2.697        -24.016
   2.699        -24.022
   2.701        -24.027
   2.703        -24.032
   2.706        -24.037
   2.708        -24.042
   2.710        -24.047
   2.712        -24.053
   2.714        -24.058
   2.716        -24.062
   2.719        -24.067
   2.721        -24.071
   2.723        -24.076
   2.725        -24.080
   2.727        -24.084
   2.729        -24.089
   2.732        -24.093
   2.734        -24.097
   2.736        -24.101
   2.738        -24.105
   2.740        -24.109
   2.743        -24.113
   2.745        -24.116
   2.747        -24.120
   2.749        -24.124
   2.751        -24.128
   2.753        -24.132
   2.756        -24.135
   2.758        -24.139
   2.760        -24.142
   2.762        -24.145
   2.764        -24.149
   2.766        -24.152
   2.769        -24.155
   2.771        -24.159
   2.773        -24.162
   2.775        -24.165
   2.777        -24.169
   2.779        -24.172
   2.782        -24.175
   2.784        -24.178
   2.786        -24.181
   2.788        -24.184
   2.790        -24.187
   2.792        -24.189
   2.795        -24.192
   2.797        -24.195
   2.799        -24.198
   2.801        -24.201
   2.803        -24.204
   2.805        -24.206
   2.808        -24.209
   2.810        -24.211
   2.812        -24.214
   2.814        -24.217
   2.816        -24.219
   2.819        -24.222
   2.821        -24.224
   2.823        -24.227
   2.825        -24.229
   2.827        -24.231
   2.829        -24.234
   2.832        -24.236
   2.834        -24.238
   2.836        -24.240
   2.838        -24.243
   2.840        -24.245
   2.842        -24.247
   2.845        -24.249
   2.847        -24.251
   2.849        -24.253
   2.851        -24.255
   2.853        -24.257
   2.855        -24.259
   2.858        -24.261
   2.860        -24.263
   2.862        -24.265
   2.864        -24.267
   2.866        -24.269
   2.868        -24.270
   2.871        -24.272
   2.873        -24.274
   2.875        -24.276
   2.877        -24.277
   2.879        -24.279
   2.881        -24.281
   2.884        -24.282
   2.886        -24.284
   2.888        -24.286
   2.890        -24.287
   2.892        -24.289
   2.894        -24.290
   2.897        -24.292
   2.899        -24.294
   2.901        -24.296
   2.903        -24.297
   2.905        -24.298
   2.908        -24.300
   2.910        -24.301
   2.912        -24.302
   2.914        -24.304
   2.916        -24.305
   2.918        -24.307
   2.921        -24.308
   2.923        -24.309
   2.925        -24.311
   2.927        -24.312
   2.929        -24.313
   2.931        -24.314
   2.934        -24.316
   2.936        -24.317
   2.938        -24.318
   2.940        -24.319
   2.942        -24.320
   2.944        -24.322
   2.947        -24.323
   2.949        -24.324
   2.951        -24.325
   2.953        -24.326
   2.955        -24.327
   2.957        -24.328
   2.960        -24.330
   2.962        -24.331
   2.964        -24.332
   2.966        -24.333
   2.968        -24.334
   2.970        -24.335
   2.973        -24.336
   2.975        -24.337
   2.977        -24.338
   2.979        -24.339
   2.981        -24.340
   2.984        -24.341
   2.986        -24.343
   2.988        -24.343
   2.990        -24.345
   2.992        -24.345
   2.994        -24.347
   2.997        -24.348
   2.999        -24.349
   3.001        -24.350
   3.003        -24.351
   3.005        -24.352
   3.007        -24.353
   3.010        -24.354
   3.012        -24.355
   3.014        -24.356
   3.016        -24.357
   3.018        -24.358
   3.020        -24.359
   3.023        -24.360
   3.025        -24.361
   3.027        -24.362
   3.029        -24.363
   3.031        -24.364
   3.033        -24.365
   3.036        -24.366
   3.038        -24.367
   3.040        -24.368
   3.042        -24.369
   3.044        -24.370
   3.046        -24.371
   3.049        -24.372
   3.051        -24.373
   3.053        -24.374
   3.055        -24.375
   3.057        -24.376
   3.060        -24.377
   3.062        -24.378
   3.064        -24.379
   3.066        -24.380
   3.068        -24.381
   3.070        -24.382
   3.073        -24.383
   3.075        -24.384
   3.077        -24.385
   3.079        -24.386
   3.081        -24.387
   3.083        -24.388
   3.086        -24.389
   3.088        -24.390
   3.090        -24.391
   3.092        -24.392
   3.094        -24.393
   3.096        -24.394
   3.099        -24.395
   3.101        -24.396
   3.103        -24.397
   3.105        -24.398
   3.107        -24.398
   3.109        -24.400
   3.112        -24.401
   3.114        -24.401
   3.116        -24.403
   3.118        -24.404
   3.120        -24.404
   3.123        -24.405
   3.125        -24.406
   3.127        -24.407
   3.129        -24.408
   3.131        -24.409
   3.133        -24.410
   3.136        -24.411
   3.138        -24.412
   3.140        -24.413
   3.142        -24.414
   3.144        -24.415
   3.146        -24.416
   3.149        -24.417
   3.151        -24.418
   3.153        -24.419
   3.155        -24.420
   3.157        -24.421
   3.159        -24.422
   3.162        -24.423
   3.164        -24.423
   3.166        -24.425
   3.168        -24.426
   3.170        -24.426
   3.172        -24.427
   3.175        -24.429
   3.177        -24.430
   3.179        -24.430
   3.181        -24.431
   3.183        -24.432
   3.185        -24.434
   3.188        -24.435
   3.190        -24.435
   3.192        -24.437
   3.194        -24.438
   3.196        -24.438
   3.199        -24.440
   3.201        -24.441
   3.203        -24.441
   3.205        -24.442
   3.207        -24.443
   3.209        -24.445
   3.212        -24.446
   3.214        -24.446
   3.216        -24.447
   3.218        -24.449
   3.220        -24.449
   3.222        -24.450
   3.225        -24.452
   3.227        -24.452
   3.229        -24.454
   3.231        -24.454
   3.233        -24.456
   3.236        -24.457
   3.237        -24.458
   3.240        -24.459
   3.242        -24.460
   3.244        -24.461
   3.246        -24.461
   3.248        -24.463
   3.251        -24.464
   3.253        -24.464
   3.255        -24.465
   3.257        -24.466
   3.259        -24.467
   3.261        -24.468
   3.263        -24.469
   3.266        -24.470
   3.268        -24.472
   3.270        -24.472
   3.272        -24.473
   3.274        -24.474
   3.277        -24.475
   3.279        -24.476
   3.281        -24.477
   3.283        -24.478
   3.285        -24.479
   3.287        -24.480
   3.290        -24.481
   3.292        -24.482
   3.294        -24.483
   3.296        -24.484
   3.298        -24.485
   3.301        -24.486
   3.303        -24.487
   3.305        -24.488
   3.307        -24.489
   3.309        -24.490
   3.311        -24.491
   3.313        -24.492
   3.316        -24.494
   3.318        -24.494
   3.320        -24.496
   3.322        -24.497
   3.324        -24.498
   3.327        -24.499
   3.329        -24.500
   3.331        -24.501
   3.333        -24.502
   3.335        -24.503
   3.337        -24.504
   3.340        -24.505
   3.342        -24.506
   3.344        -24.507
   3.346        -24.508
   3.348        -24.509
   3.350        -24.511
   3.352        -24.511
   3.355        -24.512
   3.357        -24.514
   3.359        -24.515
   3.361        -24.515
   3.363        -24.516
   3.366        -24.517
   3.368        -24.519
   3.370        -24.520
   3.372        -24.521
   3.374        -24.521
   3.376        -24.523
   3.379        -24.524
   3.381        -24.525
   3.383        -24.526
   3.385        -24.527
   3.387        -24.528
   3.389        -24.529
   3.392        -24.529
   3.394        -24.531
   3.396        -24.531
   3.398        -24.532
   3.400        -24.533
   3.402        -24.534
   3.405        -24.535
   3.407        -24.536
   3.409        -24.537
   3.411        -24.538
   3.413        -24.539
   3.416        -24.540
   3.418        -24.541
   3.420        -24.542
   3.422        -24.543
   3.424        -24.544
   3.426        -24.545
   3.429        -24.546
   3.431        -24.547
   3.433        -24.548
   3.435        -24.549
   3.437        -24.550
   3.439        -24.551
   3.442        -24.552
   3.444        -24.553
   3.446        -24.554
   3.448        -24.555
   3.450        -24.556
   3.452        -24.557
   3.455        -24.558
   3.457        -24.559
   3.459        -24.560
   3.461        -24.561
   3.463        -24.562
   3.466        -24.563
   3.468        -24.564
   3.470        -24.565
   3.472        -24.566
   3.474        -24.566
   3.476        -24.568
   3.478        -24.568
   3.481        -24.569
   3.483        -24.570
   3.485        -24.571
   3.487        -24.572
   3.489        -24.573
   3.492        -24.574
   3.494        -24.575
   3.496        -24.576
   3.498        -24.577
   3.500        -24.578
   3.502        -24.579
   3.505        -24.580
   3.507        -24.581
   3.509        -24.582
   3.511        -24.583
   3.513        -24.584
   3.515        -24.585
   3.518        -24.586
   3.520        -24.586
   3.522        -24.588
   3.524        -24.588
   3.526        -24.589
   3.528        -24.590
   3.531        -24.591
   3.533        -24.592
   3.535        -24.593
   3.537        -24.594
   3.539        -24.595
   3.541        -24.596
   3.544        -24.597
   3.546        -24.598
   3.548        -24.599
   3.550        -24.600
   3.552        -24.601
   3.555        -24.602
   3.557        -24.603
   3.559        -24.603
   3.561        -24.604
   3.563        -24.605
   3.565        -24.606
   3.568        -24.607
   3.570        -24.608
   3.572        -24.609
   3.574        -24.610
   3.576        -24.611
   3.578        -24.612
   3.581        -24.613
   3.583        -24.614
   3.585        -24.615
   3.587        -24.616
   3.589        -24.617
   3.591        -24.618
   3.594        -24.618
   3.596        -24.620
   3.598        -24.620
   3.600        -24.621
   3.602        -24.622
   3.604        -24.623
   3.607        -24.624
   3.609        -24.625
   3.611        -24.626
   3.613        -24.627
   3.615        -24.628
   3.617        -24.629
   3.620        -24.630
   3.622        -24.631
   3.624        -24.632
   3.626        -24.633
   3.628        -24.634
   3.630        -24.635
   3.633        -24.636
   3.635        -24.637
   3.637        -24.638
   3.639        -24.639
   3.641        -24.640
   3.644        -24.641
   3.646        -24.642
   3.648        -24.643
   3.650        -24.644
   3.652        -24.645
   3.654        -24.646
   3.657        -24.647
   3.659        -24.648
   3.661        -24.649
   3.663        -24.650
   3.665        -24.651
   3.667        -24.652
   3.670        -24.653
   3.672        -24.654
   3.674        -24.655
   3.676        -24.656
   3.678        -24.657
   3.680        -24.658
   3.683        -24.659
   3.685        -24.660
   3.687        -24.661
   3.689        -24.662
   3.691        -24.663
   3.693        -24.665
   3.696        -24.666
   3.698        -24.667
   3.700        -24.668
   3.702        -24.669
   3.704        -24.670
   3.706        -24.671
   3.709        -24.672
   3.711        -24.673
   3.713        -24.674
   3.715        -24.676
   3.717        -24.677
   3.719        -24.678
   3.722        -24.679
   3.724        -24.680
   3.726        -24.681
   3.728        -24.683
   3.730        -24.684
   3.733        -24.685
   3.735        -24.686
   3.737        -24.687
   3.739        -24.689
   3.741        -24.690
   3.743        -24.691
   3.746        -24.692
   3.748        -24.693
   3.750        -24.695
   3.752        -24.696
   3.754        -24.697
   3.756        -24.698
   3.759        -24.700
   3.761        -24.701
   3.763        -24.702
   3.765        -24.703
   3.767        -24.705
   3.769        -24.706
   3.772        -24.707
   3.774        -24.708
   3.776        -24.710
   3.778        -24.711
   3.780        -24.712
   3.782        -24.714
   3.785        -24.715
   3.787        -24.716
   3.789        -24.718
   3.791        -24.719
   3.793        -24.720
   3.795        -24.721
   3.798        -24.723
   3.800        -24.724
   3.802        -24.725
   3.804        -24.727
   3.806        -24.728
   3.809        -24.729
   3.811        -24.731
   3.813        -24.732
   3.815        -24.733
   3.817        -24.735
   3.819        -24.736
   3.822        -24.737
   3.824        -24.738
   3.826        -24.740
   3.828        -24.741
   3.830        -24.742
   3.832        -24.743
   3.835        -24.745
   3.837        -24.746
   3.839        -24.747
   3.841        -24.748
   3.843        -24.749
   3.845        -24.750
   3.848        -24.751
   3.850        -24.752
   3.852        -24.752
   3.854        -24.753
   3.856        -24.754
   3.858        -24.755
   3.861        -24.756
   3.863        -24.757
   3.865        -24.757
   3.867        -24.758
   3.869        -24.759
   3.871        -24.759
   3.874        -24.760
   3.876        -24.761
   3.878        -24.761
   3.880        -24.762
   3.882        -24.763
   3.885        -24.763
   3.887        -24.764
   3.889        -24.765
   3.891        -24.765
   3.899        -24.767
   3.912        -24.771
   3.925        -24.775
   3.938        -24.779
   3.951        -24.783
   3.964        -24.787
   3.977        -24.790
   3.990        -24.794
   4.003        -24.798
   4.016        -24.802
   4.029        -24.806
   4.042        -24.810
   4.055        -24.814
   4.068        -24.818
   4.081        -24.822
   4.094        -24.826
   4.107        -24.830
   4.120        -24.835
   4.133        -24.839
   4.146        -24.843
   4.159        -24.848
   4.172        -24.853
   4.185        -24.858
   4.198        -24.863
   4.211        -24.869
   4.224        -24.875
   4.237        -24.881
   4.250        -24.888
   4.263        -24.895
   4.276        -24.903
   4.289        -24.910
   4.302        -24.919
   4.315        -24.927
   4.328        -24.937
   4.341        -24.946
   4.354        -24.956
   4.367        -24.966
   4.380        -24.977
   4.393        -24.988
   4.406        -24.999
   4.420        -25.011
   4.432        -25.023
   4.445        -25.035
   4.459        -25.048
   4.471        -25.060
   4.484        -25.073
   4.498        -25.086
   4.510        -25.100
   4.524        -25.113
   4.537        -25.127
   4.550        -25.141
   4.563        -25.155
   4.576        -25.169
   4.589        -25.184
   4.602        -25.198
   4.615        -25.213
   4.628        -25.228
   4.641        -25.243
   4.654        -25.259
   4.667        -25.274
   4.680        -25.290
   4.693        -25.305
   4.706        -25.321
   4.719        -25.337
   4.732        -25.353
   4.745        -25.370
   4.758        -25.386
   4.771        -25.403
   4.784        -25.419
   4.797        -25.436
   4.810        -25.453
   4.823        -25.470
   4.836        -25.488
   4.849        -25.505
   4.862        -25.522
   4.875        -25.540
   4.888        -25.558
   4.901        -25.576
   4.914        -25.594
   4.927        -25.612
   4.940        -25.631
   4.953        -25.650
   4.966        -25.668
   4.979        -25.687
   4.992        -25.706
   5.005        -25.725
   5.018        -25.744
   5.031        -25.763
   5.044        -25.783
   5.057        -25.803
   5.070        -25.822
   5.083        -25.842
   5.096        -25.862
   5.109        -25.882
   5.123        -25.902
   5.136        -25.922
   5.149        -25.942
   5.162        -25.962
   5.175        -25.983
   5.188        -26.003
   5.201        -26.023
   5.214        -26.044
   5.227        -26.064
   5.240        -26.085
   5.253        -26.106
   5.266        -26.126
   5.279        -26.148
   5.292        -26.168
   5.305        -26.190
   5.318        -26.211
   5.331        -26.233
   5.344        -26.254
   5.357        -26.276
   5.370        -26.298
   5.383        -26.320
   5.396        -26.342
   5.409        -26.365
   5.422        -26.388
   5.435        -26.411
   5.448        -26.435
   5.461        -26.458
   5.474        -26.482
   5.487        -26.506
   5.500        -26.531
   5.513        -26.556
   5.526        -26.581
   5.539        -26.606
   5.552        -26.632
   5.565        -26.659
   5.578        -26.685
   5.591        -26.712
   5.604        -26.739
   5.617        -26.767
   5.630        -26.795
   5.643        -26.824
   5.656        -26.853
   5.669        -26.882
   5.682        -26.912
   5.695        -26.942
   5.708        -26.973
   5.721        -27.005
   5.734        -27.036
   5.748        -27.069
   5.761        -27.102
   5.774        -27.136
   5.787        -27.170
   5.800        -27.205
   5.813        -27.240
   5.826        -27.276
   5.839        -27.313
   5.852        -27.350
   5.865        -27.389
   5.878        -27.428
   5.891        -27.468
   5.904        -27.508
   5.917        -27.549
   5.930        -27.591
   5.943        -27.634
   5.956        -27.677
   5.969        -27.722
   5.982        -27.767
   5.995        -27.814
   6.008        -27.862
   6.021        -27.910
   6.034        -27.959
   6.047        -28.009
   6.060        -28.061
   6.073        -28.114
   6.086        -28.167
   6.099        -28.223
   6.112        -28.279
   6.125        -28.336
   6.138        -28.395
   6.151        -28.454
   6.164        -28.516
   6.177        -28.579
   6.190        -28.643
   6.203        -28.708
   6.216        -28.775
   6.229        -28.844
   6.242        -28.914
   6.255        -28.986
   6.268        -29.060
   6.281        -29.135
   6.294        -29.212
   6.307        -29.290
   6.320        -29.371
   6.334        -29.454
   6.346        -29.539
   6.359        -29.625
   6.372        -29.714
   6.386        -29.805
   6.399        -29.898
   6.411        -29.994
   6.425        -30.092
   6.438        -30.192
   6.451        -30.295
   6.464        -30.399
   6.477        -30.506
   6.490        -30.617
   6.503        -30.731
   6.516        -30.848
   6.529        -30.966
   6.542        -31.089
   6.555        -31.214
   6.568        -31.343
   6.581        -31.474
   6.594        -31.610
   6.607        -31.751
   6.620        -31.894
   6.633        -32.038
   6.646        -32.186
   6.659        -32.340
   6.672        -32.499
   6.685        -32.660
   6.698        -32.826
   6.711        -32.997
   6.724        -33.174
   6.737        -33.354
   6.750        -33.537
   6.763        -33.731
   6.776        -33.934
   6.789        -34.137
   6.802        -34.344
   6.815        -34.558
   6.828        -34.802
   6.841        -35.067
   6.854        -35.375
   6.867        -36.016
   6.880        -37.086
   6.893        -40.825
