# log Energy    log Jnu
# (eV)          (ergs/s/cm2/Hz/Sr)
  -6.864        -20.562
  -6.820        -20.475
  -6.777        -20.388
  -6.734        -20.301
  -6.690        -20.215
  -6.647        -20.128
  -6.603        -20.041
  -6.560        -19.954
  -6.516        -19.867
  -6.473        -19.780
  -6.430        -19.694
  -6.386        -19.607
  -6.343        -19.520
  -6.299        -19.433
  -6.256        -19.346
  -6.212        -19.259
  -6.169        -19.172
  -6.126        -19.086
  -6.082        -18.999
  -6.039        -18.912
  -5.995        -18.825
  -5.952        -18.738
  -5.908        -18.652
  -5.865        -18.565
  -5.822        -18.478
  -5.778        -18.391
  -5.735        -18.304
  -5.691        -18.218
  -5.648        -18.131
  -5.605        -18.044
  -5.561        -17.957
  -5.518        -17.871
  -5.474        -17.784
  -5.431        -17.697
  -5.387        -17.610
  -5.344        -17.524
  -5.300        -17.437
  -5.257        -17.350
  -5.214        -17.263
  -5.170        -17.177
  -5.127        -17.090
  -5.083        -17.004
  -5.040        -16.917
  -4.996        -16.831
  -4.953        -16.744
  -4.910        -16.658
  -4.866        -16.572
  -4.823        -16.485
  -4.779        -16.399
  -4.736        -16.313
  -4.692        -16.227
  -4.649        -16.141
  -4.606        -16.055
  -4.562        -15.969
  -4.519        -15.883
  -4.475        -15.797
  -4.432        -15.712
  -4.388        -15.626
  -4.345        -15.541
  -4.302        -15.456
  -4.258        -15.371
  -4.215        -15.287
  -4.171        -15.202
  -4.128        -15.118
  -4.084        -15.034
  -4.041        -14.951
  -3.998        -14.867
  -3.954        -14.785
  -3.911        -14.702
  -3.867        -14.620
  -3.824        -14.539
  -3.781        -14.458
  -3.737        -14.378
  -3.693        -14.299
  -3.650        -14.221
  -3.607        -14.144
  -3.584        -14.107
  -3.582        -14.098
  -3.580        -14.096
  -3.577        -14.093
  -3.575        -14.089
  -3.573        -14.085
  -3.571        -14.082
  -3.569        -14.078
  -3.567        -14.074
  -3.564        -14.070
  -3.562        -14.066
  -3.560        -14.063
  -3.558        -14.059
  -3.556        -14.055
  -3.554        -14.051
  -3.551        -14.047
  -3.549        -14.044
  -3.547        -14.040
  -3.545        -14.036
  -3.543        -14.032
  -3.540        -14.029
  -3.538        -14.025
  -3.536        -14.021
  -3.534        -14.017
  -3.532        -14.014
  -3.530        -14.010
  -3.528        -14.006
  -3.525        -14.002
  -3.523        -13.999
  -3.521        -13.995
  -3.519        -13.991
  -3.517        -13.987
  -3.514        -13.984
  -3.512        -13.980
  -3.510        -13.976
  -3.508        -13.972
  -3.506        -13.969
  -3.504        -13.965
  -3.502        -13.961
  -3.499        -13.958
  -3.497        -13.954
  -3.495        -13.950
  -3.493        -13.946
  -3.491        -13.943
  -3.488        -13.939
  -3.486        -13.936
  -3.484        -13.932
  -3.482        -13.928
  -3.480        -13.925
  -3.477        -13.921
  -3.475        -13.917
  -3.473        -13.914
  -3.471        -13.910
  -3.469        -13.906
  -3.467        -13.903
  -3.464        -13.899
  -3.462        -13.896
  -3.460        -13.892
  -3.458        -13.888
  -3.456        -13.884
  -3.454        -13.881
  -3.451        -13.877
  -3.449        -13.874
  -3.447        -13.870
  -3.445        -13.866
  -3.443        -13.863
  -3.441        -13.859
  -3.438        -13.856
  -3.436        -13.852
  -3.434        -13.849
  -3.432        -13.845
  -3.430        -13.841
  -3.428        -13.838
  -3.425        -13.834
  -3.423        -13.831
  -3.421        -13.827
  -3.419        -13.823
  -3.417        -13.820
  -3.415        -13.816
  -3.412        -13.813
  -3.410        -13.809
  -3.408        -13.806
  -3.406        -13.802
  -3.404        -13.799
  -3.402        -13.795
  -3.399        -13.792
  -3.397        -13.788
  -3.395        -13.785
  -3.393        -13.781
  -3.391        -13.778
  -3.389        -13.774
  -3.386        -13.771
  -3.384        -13.767
  -3.382        -13.764
  -3.380        -13.760
  -3.378        -13.757
  -3.376        -13.753
  -3.373        -13.750
  -3.371        -13.746
  -3.369        -13.743
  -3.367        -13.739
  -3.365        -13.736
  -3.362        -13.732
  -3.360        -13.729
  -3.358        -13.726
  -3.356        -13.722
  -3.354        -13.719
  -3.352        -13.715
  -3.349        -13.712
  -3.347        -13.708
  -3.345        -13.705
  -3.343        -13.702
  -3.341        -13.698
  -3.339        -13.695
  -3.336        -13.692
  -3.334        -13.688
  -3.332        -13.685
  -3.330        -13.681
  -3.328        -13.678
  -3.326        -13.675
  -3.323        -13.671
  -3.321        -13.668
  -3.319        -13.665
  -3.317        -13.661
  -3.315        -13.658
  -3.313        -13.655
  -3.310        -13.652
  -3.308        -13.648
  -3.306        -13.645
  -3.304        -13.642
  -3.302        -13.638
  -3.300        -13.635
  -3.297        -13.632
  -3.295        -13.629
  -3.293        -13.625
  -3.291        -13.622
  -3.289        -13.619
  -3.287        -13.616
  -3.284        -13.612
  -3.282        -13.609
  -3.280        -13.606
  -3.278        -13.603
  -3.276        -13.599
  -3.273        -13.596
  -3.271        -13.593
  -3.269        -13.590
  -3.267        -13.587
  -3.265        -13.584
  -3.263        -13.580
  -3.260        -13.577
  -3.258        -13.574
  -3.256        -13.571
  -3.254        -13.568
  -3.252        -13.564
  -3.250        -13.561
  -3.247        -13.558
  -3.245        -13.555
  -3.243        -13.552
  -3.241        -13.549
  -3.239        -13.546
  -3.237        -13.543
  -3.234        -13.540
  -3.232        -13.537
  -3.230        -13.534
  -3.228        -13.530
  -3.226        -13.527
  -3.224        -13.524
  -3.221        -13.521
  -3.219        -13.518
  -3.217        -13.515
  -3.215        -13.512
  -3.213        -13.509
  -3.211        -13.506
  -3.208        -13.503
  -3.206        -13.500
  -3.204        -13.497
  -3.202        -13.494
  -3.200        -13.491
  -3.197        -13.488
  -3.195        -13.485
  -3.193        -13.482
  -3.191        -13.480
  -3.189        -13.477
  -3.187        -13.474
  -3.184        -13.471
  -3.182        -13.468
  -3.180        -13.465
  -3.178        -13.462
  -3.176        -13.459
  -3.174        -13.456
  -3.171        -13.453
  -3.169        -13.451
  -3.167        -13.448
  -3.165        -13.445
  -3.163        -13.442
  -3.161        -13.439
  -3.158        -13.437
  -3.156        -13.434
  -3.154        -13.431
  -3.152        -13.428
  -3.150        -13.425
  -3.148        -13.423
  -3.145        -13.420
  -3.143        -13.417
  -3.141        -13.414
  -3.139        -13.412
  -3.137        -13.409
  -3.135        -13.406
  -3.132        -13.404
  -3.130        -13.401
  -3.128        -13.398
  -3.126        -13.396
  -3.124        -13.393
  -3.122        -13.390
  -3.119        -13.388
  -3.117        -13.385
  -3.115        -13.382
  -3.113        -13.380
  -3.111        -13.377
  -3.108        -13.375
  -3.106        -13.372
  -3.104        -13.369
  -3.102        -13.367
  -3.100        -13.365
  -3.098        -13.362
  -3.095        -13.359
  -3.093        -13.357
  -3.091        -13.355
  -3.089        -13.352
  -3.087        -13.349
  -3.085        -13.347
  -3.082        -13.345
  -3.080        -13.342
  -3.078        -13.340
  -3.076        -13.337
  -3.074        -13.335
  -3.072        -13.332
  -3.069        -13.330
  -3.067        -13.328
  -3.065        -13.325
  -3.063        -13.323
  -3.061        -13.321
  -3.059        -13.318
  -3.056        -13.316
  -3.054        -13.314
  -3.052        -13.311
  -3.050        -13.309
  -3.048        -13.307
  -3.046        -13.305
  -3.043        -13.302
  -3.041        -13.300
  -3.039        -13.298
  -3.037        -13.296
  -3.035        -13.293
  -3.032        -13.291
  -3.030        -13.289
  -3.028        -13.287
  -3.026        -13.285
  -3.024        -13.282
  -3.022        -13.281
  -3.019        -13.278
  -3.017        -13.276
  -3.015        -13.274
  -3.013        -13.272
  -3.011        -13.270
  -3.009        -13.268
  -3.006        -13.266
  -3.004        -13.264
  -3.002        -13.262
  -3.000        -13.260
  -2.998        -13.258
  -2.996        -13.256
  -2.993        -13.254
  -2.991        -13.252
  -2.989        -13.250
  -2.987        -13.249
  -2.985        -13.247
  -2.983        -13.245
  -2.980        -13.243
  -2.978        -13.241
  -2.976        -13.239
  -2.974        -13.237
  -2.972        -13.236
  -2.970        -13.234
  -2.967        -13.232
  -2.965        -13.230
  -2.963        -13.229
  -2.961        -13.227
  -2.959        -13.225
  -2.956        -13.224
  -2.954        -13.222
  -2.952        -13.220
  -2.950        -13.219
  -2.948        -13.217
  -2.946        -13.215
  -2.944        -13.214
  -2.941        -13.212
  -2.939        -13.211
  -2.937        -13.209
  -2.935        -13.208
  -2.933        -13.206
  -2.930        -13.205
  -2.928        -13.203
  -2.926        -13.202
  -2.924        -13.200
  -2.922        -13.199
  -2.920        -13.198
  -2.917        -13.196
  -2.915        -13.195
  -2.913        -13.194
  -2.911        -13.192
  -2.909        -13.191
  -2.907        -13.190
  -2.904        -13.188
  -2.902        -13.187
  -2.900        -13.186
  -2.898        -13.185
  -2.896        -13.183
  -2.894        -13.182
  -2.891        -13.181
  -2.889        -13.180
  -2.887        -13.179
  -2.885        -13.178
  -2.883        -13.177
  -2.880        -13.176
  -2.878        -13.175
  -2.876        -13.174
  -2.874        -13.173
  -2.872        -13.172
  -2.870        -13.170
  -2.867        -13.170
  -2.865        -13.169
  -2.863        -13.168
  -2.861        -13.167
  -2.859        -13.166
  -2.857        -13.165
  -2.855        -13.164
  -2.852        -13.164
  -2.850        -13.163
  -2.848        -13.163
  -2.846        -13.162
  -2.843        -13.161
  -2.842        -13.160
  -2.839        -13.160
  -2.837        -13.159
  -2.835        -13.159
  -2.833        -13.158
  -2.831        -13.157
  -2.828        -13.157
  -2.826        -13.156
  -2.824        -13.156
  -2.822        -13.155
  -2.820        -13.155
  -2.817        -13.155
  -2.815        -13.154
  -2.813        -13.154
  -2.811        -13.154
  -2.809        -13.153
  -2.807        -13.153
  -2.805        -13.152
  -2.802        -13.152
  -2.800        -13.152
  -2.798        -13.152
  -2.796        -13.152
  -2.794        -13.152
  -2.792        -13.152
  -2.789        -13.151
  -2.787        -13.152
  -2.785        -13.151
  -2.783        -13.151
  -2.781        -13.152
  -2.779        -13.151
  -2.776        -13.152
  -2.774        -13.152
  -2.772        -13.152
  -2.770        -13.152
  -2.767        -13.152
  -2.765        -13.152
  -2.763        -13.153
  -2.761        -13.153
  -2.759        -13.153
  -2.757        -13.154
  -2.754        -13.154
  -2.753        -13.154
  -2.750        -13.155
  -2.748        -13.155
  -2.746        -13.156
  -2.744        -13.156
  -2.741        -13.157
  -2.739        -13.157
  -2.737        -13.158
  -2.735        -13.158
  -2.733        -13.159
  -2.731        -13.160
  -2.729        -13.160
  -2.726        -13.161
  -2.724        -13.162
  -2.722        -13.163
  -2.720        -13.164
  -2.718        -13.165
  -2.716        -13.165
  -2.713        -13.166
  -2.711        -13.167
  -2.709        -13.168
  -2.707        -13.169
  -2.705        -13.170
  -2.703        -13.172
  -2.700        -13.173
  -2.698        -13.174
  -2.696        -13.175
  -2.694        -13.176
  -2.692        -13.178
  -2.689        -13.179
  -2.687        -13.180
  -2.685        -13.182
  -2.683        -13.183
  -2.681        -13.184
  -2.679        -13.186
  -2.677        -13.187
  -2.674        -13.189
  -2.672        -13.191
  -2.670        -13.192
  -2.668        -13.194
  -2.666        -13.196
  -2.663        -13.198
  -2.661        -13.199
  -2.659        -13.201
  -2.657        -13.203
  -2.655        -13.205
  -2.653        -13.207
  -2.650        -13.209
  -2.648        -13.211
  -2.646        -13.213
  -2.644        -13.215
  -2.642        -13.217
  -2.640        -13.219
  -2.637        -13.221
  -2.635        -13.224
  -2.633        -13.226
  -2.631        -13.228
  -2.629        -13.231
  -2.626        -13.233
  -2.624        -13.236
  -2.622        -13.238
  -2.620        -13.240
  -2.618        -13.243
  -2.616        -13.246
  -2.614        -13.248
  -2.611        -13.251
  -2.609        -13.254
  -2.607        -13.257
  -2.605        -13.260
  -2.603        -13.263
  -2.600        -13.265
  -2.598        -13.268
  -2.596        -13.272
  -2.594        -13.274
  -2.592        -13.278
  -2.590        -13.281
  -2.587        -13.284
  -2.585        -13.287
  -2.583        -13.291
  -2.581        -13.294
  -2.579        -13.297
  -2.577        -13.301
  -2.574        -13.304
  -2.572        -13.308
  -2.570        -13.311
  -2.568        -13.315
  -2.566        -13.318
  -2.564        -13.322
  -2.561        -13.326
  -2.559        -13.330
  -2.557        -13.334
  -2.555        -13.338
  -2.553        -13.342
  -2.551        -13.346
  -2.548        -13.350
  -2.546        -13.354
  -2.544        -13.358
  -2.542        -13.362
  -2.540        -13.367
  -2.538        -13.371
  -2.535        -13.375
  -2.533        -13.380
  -2.531        -13.384
  -2.529        -13.389
  -2.527        -13.393
  -2.525        -13.398
  -2.522        -13.403
  -2.520        -13.407
  -2.518        -13.412
  -2.516        -13.417
  -2.514        -13.422
  -2.511        -13.427
  -2.509        -13.432
  -2.507        -13.437
  -2.505        -13.442
  -2.503        -13.448
  -2.501        -13.453
  -2.498        -13.458
  -2.496        -13.464
  -2.494        -13.469
  -2.492        -13.474
  -2.490        -13.480
  -2.488        -13.485
  -2.485        -13.491
  -2.483        -13.497
  -2.481        -13.503
  -2.479        -13.509
  -2.477        -13.515
  -2.475        -13.520
  -2.472        -13.527
  -2.470        -13.533
  -2.468        -13.539
  -2.466        -13.545
  -2.464        -13.551
  -2.462        -13.558
  -2.459        -13.564
  -2.457        -13.571
  -2.455        -13.577
  -2.453        -13.584
  -2.451        -13.590
  -2.448        -13.597
  -2.446        -13.604
  -2.444        -13.611
  -2.442        -13.618
  -2.440        -13.625
  -2.438        -13.632
  -2.435        -13.639
  -2.433        -13.646
  -2.431        -13.653
  -2.429        -13.661
  -2.427        -13.668
  -2.425        -13.676
  -2.422        -13.683
  -2.420        -13.691
  -2.418        -13.698
  -2.416        -13.706
  -2.414        -13.714
  -2.412        -13.722
  -2.409        -13.730
  -2.407        -13.738
  -2.405        -13.746
  -2.403        -13.754
  -2.401        -13.762
  -2.398        -13.771
  -2.396        -13.779
  -2.394        -13.788
  -2.392        -13.796
  -2.390        -13.805
  -2.388        -13.813
  -2.386        -13.822
  -2.383        -13.831
  -2.381        -13.840
  -2.379        -13.849
  -2.377        -13.858
  -2.375        -13.867
  -2.372        -13.877
  -2.370        -13.886
  -2.368        -13.895
  -2.366        -13.905
  -2.364        -13.915
  -2.362        -13.924
  -2.359        -13.934
  -2.357        -13.944
  -2.355        -13.954
  -2.353        -13.963
  -2.351        -13.974
  -2.349        -13.984
  -2.346        -13.994
  -2.344        -14.004
  -2.342        -14.014
  -2.340        -14.025
  -2.338        -14.036
  -2.336        -14.046
  -2.333        -14.057
  -2.331        -14.068
  -2.329        -14.078
  -2.327        -14.089
  -2.325        -14.101
  -2.323        -14.112
  -2.320        -14.123
  -2.318        -14.134
  -2.316        -14.146
  -2.314        -14.157
  -2.312        -14.169
  -2.309        -14.181
  -2.307        -14.192
  -2.305        -14.204
  -2.303        -14.216
  -2.301        -14.228
  -2.299        -14.240
  -2.297        -14.253
  -2.294        -14.265
  -2.292        -14.277
  -2.290        -14.290
  -2.288        -14.303
  -2.286        -14.315
  -2.283        -14.328
  -2.281        -14.341
  -2.279        -14.354
  -2.277        -14.367
  -2.275        -14.380
  -2.273        -14.394
  -2.270        -14.407
  -2.268        -14.421
  -2.266        -14.434
  -2.264        -14.448
  -2.262        -14.462
  -2.260        -14.476
  -2.257        -14.490
  -2.255        -14.504
  -2.253        -14.518
  -2.251        -14.532
  -2.249        -14.547
  -2.247        -14.561
  -2.244        -14.576
  -2.242        -14.591
  -2.240        -14.605
  -2.238        -14.620
  -2.236        -14.635
  -2.234        -14.651
  -2.231        -14.666
  -2.229        -14.681
  -2.227        -14.697
  -2.225        -14.712
  -2.223        -14.728
  -2.220        -14.744
  -2.218        -14.760
  -2.216        -14.776
  -2.214        -14.792
  -2.212        -14.808
  -2.210        -14.825
  -2.207        -14.841
  -2.205        -14.858
  -2.203        -14.875
  -2.201        -14.891
  -2.199        -14.909
  -2.197        -14.926
  -2.194        -14.943
  -2.192        -14.960
  -2.190        -14.978
  -2.188        -14.995
  -2.186        -15.013
  -2.184        -15.031
  -2.181        -15.049
  -2.179        -15.067
  -2.177        -15.085
  -2.175        -15.103
  -2.173        -15.122
  -2.171        -15.140
  -2.168        -15.159
  -2.166        -15.178
  -2.164        -15.196
  -2.162        -15.216
  -2.160        -15.235
  -2.158        -15.254
  -2.155        -15.273
  -2.153        -15.293
  -2.151        -15.313
  -2.149        -15.332
  -2.147        -15.352
  -2.145        -15.373
  -2.142        -15.393
  -2.140        -15.413
  -2.138        -15.434
  -2.136        -15.454
  -2.134        -15.475
  -2.131        -15.496
  -2.129        -15.517
  -2.127        -15.538
  -2.125        -15.560
  -2.123        -15.581
  -2.121        -15.603
  -2.118        -15.624
  -2.116        -15.646
  -2.114        -15.668
  -2.112        -15.690
  -2.110        -15.713
  -2.108        -15.735
  -2.105        -15.758
  -2.103        -15.780
  -2.101        -15.803
  -2.099        -15.826
  -2.097        -15.849
  -2.095        -15.873
  -2.092        -15.896
  -2.090        -15.920
  -2.088        -15.944
  -2.086        -15.968
  -2.084        -15.992
  -2.082        -16.016
  -2.079        -16.040
  -2.077        -16.065
  -2.075        -16.089
  -2.073        -16.114
  -2.071        -16.139
  -2.069        -16.164
  -2.066        -16.190
  -2.064        -16.215
  -2.062        -16.241
  -2.060        -16.267
  -2.058        -16.292
  -2.056        -16.319
  -2.053        -16.345
  -2.051        -16.371
  -2.049        -16.397
  -2.047        -16.424
  -2.045        -16.451
  -2.043        -16.478
  -2.040        -16.505
  -2.038        -16.533
  -2.036        -16.560
  -2.034        -16.588
  -2.032        -16.616
  -2.029        -16.643
  -2.027        -16.672
  -2.025        -16.700
  -2.023        -16.728
  -2.021        -16.757
  -2.019        -16.785
  -2.016        -16.814
  -2.014        -16.843
  -2.012        -16.873
  -2.010        -16.902
  -2.008        -16.931
  -2.006        -16.961
  -2.003        -16.991
  -2.001        -17.020
  -1.999        -17.050
  -1.997        -17.080
  -1.995        -17.111
  -1.993        -17.141
  -1.990        -17.172
  -1.988        -17.202
  -1.986        -17.233
  -1.984        -17.264
  -1.982        -17.295
  -1.980        -17.326
  -1.977        -17.357
  -1.975        -17.389
  -1.973        -17.420
  -1.971        -17.451
  -1.969        -17.483
  -1.967        -17.514
  -1.964        -17.546
  -1.962        -17.578
  -1.960        -17.609
  -1.958        -17.641
  -1.956        -17.673
  -1.953        -17.704
  -1.951        -17.736
  -1.949        -17.767
  -1.947        -17.799
  -1.945        -17.830
  -1.943        -17.861
  -1.940        -17.892
  -1.938        -17.923
  -1.936        -17.954
  -1.934        -17.984
  -1.932        -18.014
  -1.930        -18.044
  -1.927        -18.073
  -1.925        -18.103
  -1.923        -18.131
  -1.921        -18.160
  -1.919        -18.188
  -1.917        -18.215
  -1.914        -18.242
  -1.912        -18.268
  -1.910        -18.294
  -1.908        -18.319
  -1.906        -18.343
  -1.904        -18.366
  -1.901        -18.389
  -1.899        -18.411
  -1.897        -18.433
  -1.895        -18.453
  -1.893        -18.473
  -1.891        -18.492
  -1.888        -18.510
  -1.886        -18.528
  -1.884        -18.544
  -1.882        -18.560
  -1.880        -18.575
  -1.877        -18.589
  -1.875        -18.602
  -1.873        -18.614
  -1.871        -18.626
  -1.869        -18.637
  -1.867        -18.647
  -1.864        -18.657
  -1.862        -18.666
  -1.860        -18.675
  -1.858        -18.682
  -1.856        -18.689
  -1.853        -18.696
  -1.851        -18.703
  -1.849        -18.708
  -1.847        -18.714
  -1.845        -18.719
  -1.843        -18.724
  -1.841        -18.728
  -1.838        -18.732
  -1.836        -18.736
  -1.834        -18.739
  -1.832        -18.743
  -1.830        -18.746
  -1.828        -18.749
  -1.825        -18.751
  -1.823        -18.754
  -1.821        -18.756
  -1.819        -18.758
  -1.817        -18.760
  -1.815        -18.762
  -1.812        -18.764
  -1.810        -18.766
  -1.808        -18.767
  -1.806        -18.769
  -1.804        -18.770
  -1.801        -18.772
  -1.799        -18.773
  -1.797        -18.774
  -1.795        -18.776
  -1.793        -18.777
  -1.791        -18.778
  -1.788        -18.779
  -1.786        -18.780
  -1.784        -18.782
  -1.782        -18.783
  -1.780        -18.783
  -1.777        -18.785
  -1.775        -18.786
  -1.773        -18.787
  -1.771        -18.787
  -1.769        -18.789
  -1.767        -18.789
  -1.764        -18.790
  -1.763        -18.791
  -1.760        -18.792
  -1.758        -18.793
  -1.756        -18.794
  -1.754        -18.795
  -1.752        -18.796
  -1.749        -18.797
  -1.747        -18.798
  -1.745        -18.799
  -1.743        -18.800
  -1.741        -18.800
  -1.739        -18.801
  -1.736        -18.802
  -1.734        -18.803
  -1.732        -18.804
  -1.730        -18.805
  -1.728        -18.805
  -1.726        -18.806
  -1.723        -18.807
  -1.721        -18.808
  -1.719        -18.809
  -1.717        -18.809
  -1.715        -18.811
  -1.713        -18.811
  -1.710        -18.812
  -1.708        -18.813
  -1.706        -18.814
  -1.704        -18.815
  -1.702        -18.816
  -1.699        -18.817
  -1.697        -18.817
  -1.695        -18.818
  -1.693        -18.819
  -1.691        -18.820
  -1.689        -18.821
  -1.686        -18.822
  -1.684        -18.822
  -1.682        -18.823
  -1.680        -18.824
  -1.678        -18.825
  -1.675        -18.826
  -1.673        -18.827
  -1.671        -18.828
  -1.669        -18.829
  -1.667        -18.829
  -1.665        -18.830
  -1.663        -18.831
  -1.660        -18.832
  -1.658        -18.833
  -1.656        -18.834
  -1.654        -18.835
  -1.652        -18.835
  -1.650        -18.836
  -1.647        -18.837
  -1.645        -18.838
  -1.643        -18.839
  -1.641        -18.840
  -1.639        -18.841
  -1.637        -18.841
  -1.634        -18.842
  -1.632        -18.843
  -1.630        -18.844
  -1.628        -18.845
  -1.626        -18.846
  -1.623        -18.847
  -1.621        -18.848
  -1.619        -18.848
  -1.617        -18.849
  -1.615        -18.850
  -1.613        -18.851
  -1.611        -18.852
  -1.608        -18.852
  -1.606        -18.853
  -1.604        -18.854
  -1.602        -18.855
  -1.600        -18.856
  -1.597        -18.857
  -1.595        -18.858
  -1.593        -18.859
  -1.591        -18.859
  -1.589        -18.860
  -1.587        -18.861
  -1.584        -18.862
  -1.582        -18.863
  -1.580        -18.864
  -1.578        -18.864
  -1.576        -18.865
  -1.573        -18.866
  -1.571        -18.867
  -1.569        -18.868
  -1.567        -18.868
  -1.565        -18.869
  -1.563        -18.870
  -1.561        -18.871
  -1.558        -18.872
  -1.556        -18.873
  -1.554        -18.874
  -1.552        -18.875
  -1.550        -18.875
  -1.547        -18.876
  -1.545        -18.877
  -1.543        -18.878
  -1.541        -18.879
  -1.539        -18.879
  -1.537        -18.880
  -1.534        -18.881
  -1.532        -18.882
  -1.530        -18.883
  -1.528        -18.884
  -1.526        -18.885
  -1.524        -18.885
  -1.522        -18.886
  -1.519        -18.887
  -1.517        -18.888
  -1.515        -18.889
  -1.513        -18.890
  -1.511        -18.891
  -1.508        -18.891
  -1.506        -18.892
  -1.504        -18.893
  -1.502        -18.894
  -1.500        -18.895
  -1.498        -18.896
  -1.495        -18.896
  -1.493        -18.897
  -1.491        -18.898
  -1.489        -18.899
  -1.487        -18.900
  -1.484        -18.901
  -1.482        -18.902
  -1.480        -18.902
  -1.478        -18.903
  -1.476        -18.904
  -1.474        -18.905
  -1.472        -18.906
  -1.469        -18.907
  -1.467        -18.908
  -1.465        -18.908
  -1.463        -18.909
  -1.461        -18.910
  -1.458        -18.911
  -1.456        -18.912
  -1.454        -18.913
  -1.452        -18.913
  -1.450        -18.914
  -1.448        -18.915
  -1.445        -18.916
  -1.443        -18.917
  -1.441        -18.918
  -1.439        -18.919
  -1.437        -18.919
  -1.435        -18.920
  -1.432        -18.921
  -1.430        -18.922
  -1.428        -18.923
  -1.426        -18.924
  -1.424        -18.924
  -1.422        -18.925
  -1.419        -18.926
  -1.417        -18.927
  -1.415        -18.928
  -1.413        -18.929
  -1.411        -18.930
  -1.409        -18.931
  -1.406        -18.931
  -1.404        -18.932
  -1.402        -18.933
  -1.400        -18.934
  -1.398        -18.935
  -1.396        -18.935
  -1.393        -18.936
  -1.391        -18.937
  -1.389        -18.938
  -1.387        -18.939
  -1.385        -18.940
  -1.383        -18.941
  -1.380        -18.942
  -1.378        -18.942
  -1.376        -18.943
  -1.374        -18.944
  -1.372        -18.945
  -1.370        -18.946
  -1.367        -18.947
  -1.365        -18.947
  -1.363        -18.948
  -1.361        -18.949
  -1.359        -18.950
  -1.356        -18.951
  -1.354        -18.952
  -1.352        -18.953
  -1.350        -18.954
  -1.348        -18.955
  -1.346        -18.955
  -1.343        -18.956
  -1.341        -18.957
  -1.339        -18.958
  -1.337        -18.959
  -1.335        -18.960
  -1.333        -18.961
  -1.330        -18.961
  -1.328        -18.962
  -1.326        -18.963
  -1.324        -18.964
  -1.322        -18.965
  -1.320        -18.966
  -1.317        -18.967
  -1.315        -18.968
  -1.313        -18.968
  -1.311        -18.969
  -1.309        -18.970
  -1.307        -18.971
  -1.304        -18.972
  -1.302        -18.973
  -1.300        -18.974
  -1.298        -18.975
  -1.296        -18.976
  -1.293        -18.977
  -1.291        -18.978
  -1.289        -18.978
  -1.287        -18.980
  -1.285        -18.980
  -1.283        -18.981
  -1.280        -18.982
  -1.278        -18.983
  -1.276        -18.984
  -1.274        -18.985
  -1.272        -18.986
  -1.270        -18.987
  -1.267        -18.988
  -1.265        -18.989
  -1.263        -18.990
  -1.261        -18.990
  -1.259        -18.991
  -1.257        -18.993
  -1.254        -18.993
  -1.252        -18.994
  -1.250        -18.995
  -1.248        -18.997
  -1.246        -18.997
  -1.243        -18.998
  -1.241        -18.999
  -1.239        -19.000
  -1.237        -19.001
  -1.235        -19.002
  -1.233        -19.003
  -1.231        -19.004
  -1.228        -19.005
  -1.226        -19.006
  -1.224        -19.007
  -1.222        -19.009
  -1.220        -19.009
  -1.217        -19.010
  -1.215        -19.011
  -1.213        -19.013
  -1.211        -19.013
  -1.209        -19.015
  -1.207        -19.016
  -1.204        -19.017
  -1.202        -19.018
  -1.200        -19.019
  -1.198        -19.020
  -1.196        -19.021
  -1.194        -19.022
  -1.191        -19.023
  -1.189        -19.024
  -1.187        -19.026
  -1.185        -19.027
  -1.183        -19.028
  -1.181        -19.029
  -1.178        -19.030
  -1.176        -19.031
  -1.174        -19.032
  -1.172        -19.033
  -1.170        -19.035
  -1.168        -19.036
  -1.165        -19.037
  -1.163        -19.038
  -1.161        -19.039
  -1.159        -19.041
  -1.157        -19.042
  -1.155        -19.043
  -1.152        -19.044
  -1.150        -19.046
  -1.148        -19.047
  -1.146        -19.048
  -1.144        -19.049
  -1.142        -19.051
  -1.139        -19.052
  -1.137        -19.053
  -1.135        -19.055
  -1.133        -19.056
  -1.131        -19.057
  -1.129        -19.059
  -1.126        -19.060
  -1.124        -19.061
  -1.122        -19.063
  -1.120        -19.064
  -1.118        -19.066
  -1.115        -19.067
  -1.113        -19.068
  -1.111        -19.070
  -1.109        -19.071
  -1.107        -19.073
  -1.105        -19.074
  -1.102        -19.076
  -1.100        -19.077
  -1.098        -19.079
  -1.096        -19.080
  -1.094        -19.082
  -1.092        -19.083
  -1.089        -19.085
  -1.087        -19.087
  -1.085        -19.088
  -1.083        -19.090
  -1.081        -19.091
  -1.079        -19.093
  -1.076        -19.095
  -1.074        -19.096
  -1.072        -19.098
  -1.070        -19.100
  -1.068        -19.102
  -1.066        -19.103
  -1.063        -19.105
  -1.061        -19.107
  -1.059        -19.109
  -1.057        -19.110
  -1.055        -19.112
  -1.052        -19.114
  -1.050        -19.116
  -1.048        -19.118
  -1.046        -19.120
  -1.044        -19.122
  -1.042        -19.124
  -1.039        -19.126
  -1.037        -19.127
  -1.035        -19.129
  -1.033        -19.131
  -1.031        -19.133
  -1.029        -19.135
  -1.026        -19.137
  -1.024        -19.139
  -1.022        -19.141
  -1.020        -19.144
  -1.018        -19.146
  -1.016        -19.148
  -1.013        -19.150
  -1.011        -19.152
  -1.009        -19.154
  -1.007        -19.156
  -1.005        -19.158
  -1.003        -19.161
  -1.000        -19.163
  -0.998        -19.165
  -0.996        -19.167
  -0.994        -19.169
  -0.992        -19.171
  -0.990        -19.173
  -0.987        -19.176
  -0.985        -19.178
  -0.983        -19.180
  -0.981        -19.182
  -0.979        -19.184
  -0.977        -19.186
  -0.974        -19.188
  -0.972        -19.190
  -0.970        -19.193
  -0.968        -19.194
  -0.966        -19.197
  -0.963        -19.199
  -0.961        -19.201
  -0.959        -19.203
  -0.957        -19.205
  -0.955        -19.207
  -0.953        -19.209
  -0.950        -19.211
  -0.948        -19.213
  -0.946        -19.215
  -0.944        -19.217
  -0.942        -19.219
  -0.940        -19.221
  -0.937        -19.223
  -0.935        -19.224
  -0.933        -19.226
  -0.931        -19.228
  -0.929        -19.230
  -0.927        -19.232
  -0.924        -19.234
  -0.922        -19.236
  -0.920        -19.238
  -0.918        -19.239
  -0.916        -19.241
  -0.914        -19.243
  -0.911        -19.245
  -0.909        -19.246
  -0.907        -19.248
  -0.905        -19.250
  -0.903        -19.252
  -0.900        -19.253
  -0.898        -19.255
  -0.896        -19.256
  -0.894        -19.258
  -0.892        -19.260
  -0.890        -19.261
  -0.887        -19.263
  -0.885        -19.265
  -0.883        -19.266
  -0.881        -19.268
  -0.879        -19.269
  -0.877        -19.271
  -0.874        -19.272
  -0.872        -19.273
  -0.870        -19.275
  -0.868        -19.277
  -0.866        -19.278
  -0.864        -19.279
  -0.862        -19.281
  -0.859        -19.282
  -0.857        -19.283
  -0.855        -19.285
  -0.853        -19.286
  -0.851        -19.287
  -0.848        -19.289
  -0.846        -19.290
  -0.844        -19.292
  -0.842        -19.293
  -0.840        -19.294
  -0.838        -19.295
  -0.835        -19.296
  -0.833        -19.297
  -0.831        -19.298
  -0.829        -19.300
  -0.827        -19.301
  -0.825        -19.302
  -0.822        -19.303
  -0.820        -19.304
  -0.818        -19.305
  -0.816        -19.306
  -0.814        -19.307
  -0.812        -19.308
  -0.809        -19.309
  -0.807        -19.310
  -0.805        -19.311
  -0.803        -19.312
  -0.801        -19.313
  -0.799        -19.314
  -0.796        -19.315
  -0.794        -19.316
  -0.792        -19.316
  -0.790        -19.317
  -0.788        -19.318
  -0.785        -19.319
  -0.783        -19.319
  -0.781        -19.320
  -0.779        -19.321
  -0.777        -19.321
  -0.774        -19.322
  -0.772        -19.323
  -0.770        -19.323
  -0.768        -19.324
  -0.766        -19.325
  -0.764        -19.325
  -0.762        -19.326
  -0.759        -19.326
  -0.757        -19.327
  -0.755        -19.327
  -0.753        -19.328
  -0.751        -19.328
  -0.748        -19.329
  -0.746        -19.329
  -0.744        -19.329
  -0.742        -19.330
  -0.740        -19.330
  -0.738        -19.330
  -0.736        -19.331
  -0.733        -19.331
  -0.731        -19.332
  -0.729        -19.332
  -0.727        -19.332
  -0.725        -19.332
  -0.723        -19.332
  -0.720        -19.333
  -0.718        -19.333
  -0.716        -19.333
  -0.714        -19.333
  -0.712        -19.333
  -0.709        -19.334
  -0.707        -19.334
  -0.705        -19.334
  -0.703        -19.334
  -0.701        -19.334
  -0.699        -19.334
  -0.697        -19.334
  -0.694        -19.334
  -0.692        -19.334
  -0.690        -19.334
  -0.688        -19.334
  -0.685        -19.334
  -0.683        -19.334
  -0.681        -19.334
  -0.679        -19.334
  -0.677        -19.334
  -0.675        -19.334
  -0.673        -19.334
  -0.670        -19.334
  -0.668        -19.333
  -0.666        -19.334
  -0.664        -19.333
  -0.662        -19.333
  -0.659        -19.333
  -0.657        -19.333
  -0.655        -19.333
  -0.653        -19.332
  -0.651        -19.332
  -0.649        -19.332
  -0.647        -19.331
  -0.644        -19.331
  -0.642        -19.331
  -0.640        -19.330
  -0.638        -19.330
  -0.636        -19.330
  -0.633        -19.329
  -0.631        -19.329
  -0.629        -19.329
  -0.627        -19.328
  -0.625        -19.328
  -0.623        -19.327
  -0.621        -19.327
  -0.618        -19.326
  -0.616        -19.326
  -0.614        -19.325
  -0.612        -19.325
  -0.610        -19.324
  -0.608        -19.323
  -0.605        -19.323
  -0.603        -19.322
  -0.601        -19.322
  -0.599        -19.321
  -0.596        -19.321
  -0.594        -19.320
  -0.592        -19.319
  -0.590        -19.319
  -0.588        -19.318
  -0.586        -19.317
  -0.584        -19.317
  -0.581        -19.316
  -0.579        -19.315
  -0.577        -19.314
  -0.575        -19.314
  -0.573        -19.313
  -0.571        -19.312
  -0.568        -19.312
  -0.566        -19.311
  -0.564        -19.310
  -0.562        -19.309
  -0.560        -19.309
  -0.557        -19.308
  -0.555        -19.307
  -0.553        -19.306
  -0.551        -19.306
  -0.549        -19.305
  -0.547        -19.304
  -0.544        -19.303
  -0.542        -19.303
  -0.540        -19.302
  -0.538        -19.301
  -0.536        -19.300
  -0.534        -19.300
  -0.531        -19.299
  -0.529        -19.298
  -0.527        -19.297
  -0.525        -19.297
  -0.523        -19.296
  -0.521        -19.295
  -0.518        -19.294
  -0.516        -19.293
  -0.514        -19.293
  -0.512        -19.292
  -0.510        -19.291
  -0.507        -19.290
  -0.505        -19.289
  -0.503        -19.289
  -0.501        -19.288
  -0.499        -19.287
  -0.497        -19.286
  -0.495        -19.285
  -0.492        -19.284
  -0.490        -19.284
  -0.488        -19.283
  -0.486        -19.282
  -0.484        -19.281
  -0.482        -19.280
  -0.479        -19.279
  -0.477        -19.278
  -0.475        -19.277
  -0.473        -19.277
  -0.471        -19.276
  -0.468        -19.275
  -0.466        -19.274
  -0.464        -19.273
  -0.462        -19.272
  -0.460        -19.271
  -0.458        -19.270
  -0.455        -19.269
  -0.453        -19.269
  -0.451        -19.268
  -0.449        -19.267
  -0.447        -19.266
  -0.445        -19.265
  -0.442        -19.264
  -0.440        -19.263
  -0.438        -19.262
  -0.436        -19.261
  -0.434        -19.260
  -0.432        -19.260
  -0.429        -19.259
  -0.427        -19.258
  -0.425        -19.257
  -0.423        -19.256
  -0.421        -19.255
  -0.419        -19.254
  -0.416        -19.253
  -0.414        -19.252
  -0.412        -19.251
  -0.410        -19.250
  -0.408        -19.249
  -0.405        -19.249
  -0.403        -19.248
  -0.401        -19.247
  -0.399        -19.246
  -0.397        -19.245
  -0.395        -19.244
  -0.392        -19.243
  -0.390        -19.242
  -0.388        -19.241
  -0.386        -19.240
  -0.384        -19.239
  -0.382        -19.238
  -0.379        -19.237
  -0.377        -19.236
  -0.375        -19.235
  -0.373        -19.234
  -0.371        -19.233
  -0.369        -19.232
  -0.366        -19.231
  -0.364        -19.230
  -0.362        -19.229
  -0.360        -19.228
  -0.358        -19.227
  -0.356        -19.226
  -0.353        -19.225
  -0.351        -19.224
  -0.349        -19.223
  -0.347        -19.222
  -0.345        -19.221
  -0.343        -19.220
  -0.340        -19.219
  -0.338        -19.218
  -0.336        -19.217
  -0.334        -19.216
  -0.332        -19.215
  -0.330        -19.214
  -0.327        -19.213
  -0.325        -19.212
  -0.323        -19.211
  -0.321        -19.210
  -0.319        -19.209
  -0.316        -19.208
  -0.314        -19.207
  -0.312        -19.206
  -0.310        -19.205
  -0.308        -19.204
  -0.306        -19.203
  -0.303        -19.202
  -0.301        -19.201
  -0.299        -19.200
  -0.297        -19.200
  -0.295        -19.199
  -0.293        -19.198
  -0.290        -19.198
  -0.288        -19.197
  -0.286        -19.196
  -0.284        -19.195
  -0.282        -19.195
  -0.280        -19.194
  -0.277        -19.194
  -0.275        -19.193
  -0.273        -19.193
  -0.271        -19.192
  -0.269        -19.191
  -0.267        -19.191
  -0.264        -19.191
  -0.262        -19.190
  -0.260        -19.190
  -0.258        -19.189
  -0.256        -19.189
  -0.253        -19.188
  -0.251        -19.188
  -0.249        -19.187
  -0.247        -19.187
  -0.245        -19.187
  -0.243        -19.186
  -0.241        -19.186
  -0.238        -19.185
  -0.236        -19.185
  -0.234        -19.185
  -0.232        -19.185
  -0.230        -19.184
  -0.227        -19.184
  -0.225        -19.184
  -0.223        -19.183
  -0.221        -19.183
  -0.219        -19.183
  -0.217        -19.183
  -0.214        -19.183
  -0.212        -19.182
  -0.210        -19.182
  -0.208        -19.182
  -0.206        -19.182
  -0.204        -19.181
  -0.201        -19.182
  -0.199        -19.181
  -0.197        -19.181
  -0.195        -19.181
  -0.193        -19.181
  -0.191        -19.181
  -0.188        -19.181
  -0.186        -19.181
  -0.184        -19.181
  -0.182        -19.181
  -0.180        -19.181
  -0.178        -19.181
  -0.175        -19.181
  -0.173        -19.181
  -0.171        -19.182
  -0.169        -19.182
  -0.167        -19.182
  -0.164        -19.182
  -0.162        -19.182
  -0.160        -19.183
  -0.158        -19.183
  -0.156        -19.183
  -0.154        -19.183
  -0.151        -19.184
  -0.149        -19.184
  -0.147        -19.184
  -0.145        -19.185
  -0.143        -19.185
  -0.141        -19.185
  -0.138        -19.186
  -0.136        -19.186
  -0.134        -19.186
  -0.132        -19.187
  -0.130        -19.187
  -0.128        -19.187
  -0.125        -19.188
  -0.123        -19.188
  -0.121        -19.189
  -0.119        -19.189
  -0.117        -19.189
  -0.115        -19.190
  -0.112        -19.190
  -0.110        -19.190
  -0.108        -19.191
  -0.106        -19.191
  -0.104        -19.191
  -0.102        -19.192
  -0.099        -19.192
  -0.097        -19.193
  -0.095        -19.193
  -0.093        -19.193
  -0.091        -19.194
  -0.089        -19.194
  -0.086        -19.194
  -0.084        -19.195
  -0.082        -19.195
  -0.080        -19.195
  -0.078        -19.196
  -0.075        -19.196
  -0.073        -19.196
  -0.071        -19.197
  -0.069        -19.197
  -0.067        -19.197
  -0.065        -19.198
  -0.063        -19.198
  -0.060        -19.198
  -0.058        -19.198
  -0.056        -19.199
  -0.054        -19.199
  -0.052        -19.200
  -0.049        -19.200
  -0.047        -19.200
  -0.045        -19.200
  -0.043        -19.201
  -0.041        -19.201
  -0.039        -19.202
  -0.036        -19.202
  -0.034        -19.202
  -0.032        -19.203
  -0.030        -19.203
  -0.028        -19.204
  -0.026        -19.204
  -0.023        -19.204
  -0.021        -19.204
  -0.019        -19.205
  -0.017        -19.205
  -0.015        -19.206
  -0.013        -19.206
  -0.010        -19.206
  -0.008        -19.207
  -0.006        -19.207
  -0.004        -19.207
  -0.002        -19.208
   0.000        -19.208
   0.003        -19.209
   0.005        -19.209
   0.007        -19.209
   0.009        -19.210
   0.011        -19.210
   0.013        -19.210
   0.016        -19.211
   0.018        -19.211
   0.020        -19.212
   0.022        -19.212
   0.024        -19.212
   0.027        -19.213
   0.029        -19.213
   0.031        -19.213
   0.033        -19.214
   0.035        -19.214
   0.037        -19.215
   0.040        -19.215
   0.042        -19.215
   0.044        -19.216
   0.046        -19.216
   0.048        -19.217
   0.050        -19.217
   0.053        -19.218
   0.055        -19.218
   0.057        -19.218
   0.059        -19.219
   0.061        -19.219
   0.063        -19.220
   0.066        -19.220
   0.068        -19.221
   0.070        -19.221
   0.072        -19.222
   0.074        -19.222
   0.076        -19.222
   0.079        -19.222
   0.081        -19.223
   0.083        -19.223
   0.085        -19.224
   0.087        -19.224
   0.089        -19.224
   0.092        -19.224
   0.094        -19.225
   0.096        -19.225
   0.098        -19.226
   0.100        -19.226
   0.103        -19.226
   0.105        -19.227
   0.107        -19.227
   0.109        -19.227
   0.111        -19.228
   0.113        -19.228
   0.116        -19.229
   0.118        -19.229
   0.120        -19.230
   0.122        -19.230
   0.124        -19.230
   0.126        -19.231
   0.128        -19.231
   0.131        -19.231
   0.133        -19.232
   0.135        -19.232
   0.137        -19.233
   0.139        -19.233
   0.142        -19.234
   0.144        -19.234
   0.146        -19.234
   0.148        -19.235
   0.150        -19.235
   0.153        -19.235
   0.155        -19.235
   0.157        -19.236
   0.159        -19.236
   0.161        -19.237
   0.163        -19.237
   0.165        -19.237
   0.168        -19.238
   0.170        -19.238
   0.172        -19.239
   0.174        -19.239
   0.176        -19.239
   0.178        -19.240
   0.181        -19.240
   0.183        -19.240
   0.185        -19.241
   0.187        -19.241
   0.189        -19.242
   0.192        -19.242
   0.194        -19.243
   0.196        -19.243
   0.198        -19.243
   0.200        -19.244
   0.202        -19.244
   0.205        -19.244
   0.207        -19.245
   0.209        -19.245
   0.211        -19.246
   0.213        -19.246
   0.215        -19.246
   0.218        -19.247
   0.220        -19.247
   0.222        -19.248
   0.224        -19.248
   0.226        -19.248
   0.229        -19.249
   0.231        -19.249
   0.233        -19.250
   0.235        -19.250
   0.237        -19.251
   0.239        -19.251
   0.241        -19.252
   0.244        -19.252
   0.246        -19.253
   0.248        -19.253
   0.250        -19.254
   0.252        -19.254
   0.254        -19.255
   0.257        -19.255
   0.259        -19.256
   0.261        -19.256
   0.263        -19.257
   0.265        -19.258
   0.267        -19.258
   0.270        -19.259
   0.272        -19.260
   0.274        -19.260
   0.276        -19.261
   0.278        -19.261
   0.281        -19.262
   0.283        -19.262
   0.285        -19.263
   0.287        -19.264
   0.289        -19.264
   0.291        -19.265
   0.293        -19.266
   0.296        -19.266
   0.298        -19.267
   0.300        -19.268
   0.302        -19.268
   0.305        -19.269
   0.307        -19.270
   0.309        -19.271
   0.311        -19.271
   0.313        -19.272
   0.315        -19.273
   0.318        -19.274
   0.320        -19.274
   0.322        -19.275
   0.324        -19.276
   0.326        -19.277
   0.328        -19.278
   0.330        -19.278
   0.333        -19.279
   0.335        -19.280
   0.337        -19.281
   0.339        -19.282
   0.341        -19.283
   0.344        -19.284
   0.346        -19.284
   0.348        -19.285
   0.350        -19.286
   0.352        -19.287
   0.354        -19.288
   0.356        -19.289
   0.359        -19.290
   0.361        -19.291
   0.363        -19.291
   0.365        -19.292
   0.367        -19.293
   0.369        -19.294
   0.372        -19.295
   0.374        -19.296
   0.376        -19.297
   0.378        -19.298
   0.380        -19.299
   0.383        -19.300
   0.385        -19.301
   0.387        -19.302
   0.389        -19.303
   0.391        -19.305
   0.393        -19.306
   0.396        -19.307
   0.398        -19.308
   0.400        -19.309
   0.402        -19.310
   0.404        -19.311
   0.406        -19.313
   0.409        -19.314
   0.411        -19.315
   0.413        -19.317
   0.415        -19.318
   0.417        -19.319
   0.420        -19.321
   0.422        -19.322
   0.424        -19.323
   0.426        -19.324
   0.428        -19.326
   0.430        -19.327
   0.432        -19.329
   0.435        -19.330
   0.437        -19.332
   0.439        -19.333
   0.441        -19.335
   0.443        -19.336
   0.446        -19.338
   0.448        -19.339
   0.450        -19.341
   0.452        -19.342
   0.454        -19.344
   0.456        -19.346
   0.459        -19.348
   0.461        -19.349
   0.463        -19.351
   0.465        -19.353
   0.467        -19.355
   0.469        -19.356
   0.472        -19.358
   0.474        -19.360
   0.476        -19.361
   0.478        -19.363
   0.480        -19.365
   0.482        -19.366
   0.485        -19.368
   0.487        -19.370
   0.489        -19.371
   0.491        -19.372
   0.493        -19.373
   0.495        -19.374
   0.498        -19.375
   0.500        -19.376
   0.502        -19.377
   0.504        -19.377
   0.506        -19.378
   0.510        -19.379
   0.512        -19.380
   0.513        -19.380
   0.515        -19.380
   0.517        -19.380
   0.519        -19.380
   0.522        -19.381
   0.524        -19.381
   0.526        -19.381
   0.528        -19.381
   0.530        -19.381
   0.532        -19.382
   0.535        -19.382
   0.537        -19.382
   0.539        -19.382
   0.541        -19.382
   0.543        -19.382
   0.545        -19.383
   0.548        -19.383
   0.550        -19.383
   0.552        -19.383
   0.554        -19.384
   0.556        -19.384
   0.558        -19.384
   0.561        -19.384
   0.563        -19.385
   0.565        -19.385
   0.567        -19.385
   0.569        -19.385
   0.572        -19.386
   0.574        -19.386
   0.576        -19.386
   0.578        -19.387
   0.580        -19.387
   0.582        -19.387
   0.585        -19.387
   0.587        -19.388
   0.589        -19.388
   0.591        -19.388
   0.593        -19.389
   0.595        -19.389
   0.598        -19.389
   0.600        -19.390
   0.602        -19.390
   0.604        -19.391
   0.606        -19.391
   0.608        -19.391
   0.611        -19.392
   0.613        -19.392
   0.615        -19.392
   0.617        -19.393
   0.619        -19.393
   0.621        -19.393
   0.624        -19.394
   0.626        -19.394
   0.628        -19.395
   0.630        -19.395
   0.632        -19.395
   0.634        -19.396
   0.637        -19.396
   0.639        -19.396
   0.641        -19.397
   0.643        -19.397
   0.645        -19.398
   0.647        -19.398
   0.650        -19.398
   0.652        -19.399
   0.654        -19.399
   0.656        -19.400
   0.658        -19.400
   0.660        -19.401
   0.663        -19.401
   0.665        -19.401
   0.667        -19.402
   0.669        -19.402
   0.671        -19.403
   0.673        -19.403
   0.676        -19.404
   0.678        -19.404
   0.680        -19.405
   0.682        -19.405
   0.684        -19.406
   0.687        -19.406
   0.689        -19.407
   0.691        -19.407
   0.693        -19.408
   0.695        -19.408
   0.697        -19.409
   0.700        -19.410
   0.702        -19.410
   0.704        -19.411
   0.706        -19.412
   0.708        -19.413
   0.710        -19.414
   0.713        -19.414
   0.715        -19.415
   0.717        -19.416
   0.719        -19.417
   0.721        -19.418
   0.723        -19.419
   0.726        -19.420
   0.728        -19.421
   0.730        -19.422
   0.732        -19.423
   0.734        -19.424
   0.736        -19.425
   0.739        -19.426
   0.741        -19.427
   0.743        -19.428
   0.745        -19.429
   0.747        -19.430
   0.750        -19.432
   0.752        -19.433
   0.754        -19.434
   0.756        -19.435
   0.758        -19.436
   0.760        -19.437
   0.762        -19.438
   0.765        -19.440
   0.767        -19.441
   0.769        -19.442
   0.771        -19.444
   0.773        -19.445
   0.776        -19.446
   0.778        -19.447
   0.780        -19.449
   0.782        -19.450
   0.784        -19.452
   0.786        -19.453
   0.789        -19.455
   0.791        -19.457
   0.793        -19.458
   0.795        -19.460
   0.797        -19.462
   0.799        -19.463
   0.802        -19.465
   0.804        -19.467
   0.806        -19.469
   0.808        -19.471
   0.810        -19.473
   0.812        -19.475
   0.815        -19.477
   0.817        -19.479
   0.819        -19.481
   0.821        -19.483
   0.823        -19.485
   0.825        -19.487
   0.828        -19.490
   0.830        -19.492
   0.832        -19.494
   0.834        -19.496
   0.836        -19.499
   0.838        -19.501
   0.841        -19.503
   0.843        -19.506
   0.845        -19.508
   0.847        -19.511
   0.849        -19.513
   0.852        -19.516
   0.854        -19.518
   0.856        -19.521
   0.858        -19.523
   0.860        -19.526
   0.862        -19.528
   0.865        -19.531
   0.867        -19.534
   0.869        -19.536
   0.871        -19.539
   0.873        -19.542
   0.875        -19.545
   0.878        -19.547
   0.880        -19.550
   0.882        -19.553
   0.884        -19.555
   0.886        -19.559
   0.888        -19.562
   0.891        -19.565
   0.893        -19.568
   0.895        -19.572
   0.897        -19.575
   0.899        -19.578
   0.901        -19.582
   0.904        -19.585
   0.906        -19.589
   0.908        -19.593
   0.910        -19.597
   0.912        -19.601
   0.915        -19.605
   0.917        -19.609
   0.919        -19.613
   0.921        -19.617
   0.923        -19.621
   0.925        -19.625
   0.928        -19.630
   0.930        -19.634
   0.932        -19.639
   0.934        -19.644
   0.936        -19.649
   0.938        -19.654
   0.941        -19.659
   0.943        -19.664
   0.945        -19.669
   0.947        -19.674
   0.949        -19.680
   0.951        -19.687
   0.954        -19.693
   0.956        -19.700
   0.958        -19.707
   0.960        -19.713
   0.962        -19.720
   0.964        -19.726
   0.967        -19.733
   0.969        -19.739
   0.971        -19.744
   0.973        -19.750
   0.975        -19.755
   0.977        -19.760
   0.980        -19.766
   0.982        -19.771
   0.984        -19.776
   0.986        -19.781
   0.988        -19.789
   0.990        -19.797
   0.993        -19.803
   0.995        -19.809
   0.997        -19.815
   0.999        -19.821
   1.001        -19.827
   1.004        -19.833
   1.006        -19.839
   1.008        -19.845
   1.010        -19.853
   1.012        -19.864
   1.014        -19.875
   1.017        -19.887
   1.019        -19.898
   1.021        -19.910
   1.023        -19.921
   1.025        -19.932
   1.027        -19.944
   1.030        -19.955
   1.032        -19.970
   1.034        -19.986
   1.036        -20.002
   1.038        -20.019
   1.040        -20.035
   1.043        -20.051
   1.045        -20.068
   1.047        -20.084
   1.049        -20.100
   1.051        -20.118
   1.053        -20.143
   1.056        -20.169
   1.058        -20.194
   1.060        -20.220
   1.062        -20.246
   1.064        -20.272
   1.066        -20.297
   1.069        -20.323
   1.071        -20.349
   1.073        -20.388
   1.075        -20.439
   1.077        -20.490
   1.079        -20.541
   1.082        -20.592
   1.084        -20.643
   1.086        -20.694
   1.088        -20.745
   1.090        -20.796
   1.093        -20.846
   1.095        -20.892
   1.097        -20.937
   1.099        -20.981
   1.101        -21.026
   1.103        -21.071
   1.106        -21.115
   1.108        -21.160
   1.110        -21.205
   1.112        -21.255
   1.114        -21.283
   1.117        -21.285
   1.119        -21.288
   1.121        -21.291
   1.123        -21.294
   1.125        -21.297
   1.127        -21.300
   1.129        -21.303
   1.131        -21.306
   1.134        -21.309
   1.136        -21.312
   1.138        -21.315
   1.140        -21.318
   1.143        -21.321
   1.145        -21.323
   1.147        -21.326
   1.149        -21.329
   1.151        -21.332
   1.153        -21.335
   1.155        -21.337
   1.158        -21.340
   1.160        -21.343
   1.162        -21.345
   1.164        -21.348
   1.166        -21.351
   1.169        -21.353
   1.171        -21.356
   1.173        -21.359
   1.175        -21.361
   1.177        -21.364
   1.180        -21.367
   1.181        -21.370
   1.184        -21.372
   1.186        -21.375
   1.188        -21.378
   1.190        -21.381
   1.192        -21.383
   1.195        -21.386
   1.197        -21.389
   1.199        -21.392
   1.201        -21.395
   1.203        -21.397
   1.205        -21.400
   1.208        -21.403
   1.210        -21.406
   1.212        -21.408
   1.214        -21.411
   1.216        -21.414
   1.218        -21.417
   1.220        -21.419
   1.223        -21.422
   1.225        -21.425
   1.227        -21.428
   1.229        -21.431
   1.232        -21.434
   1.234        -21.436
   1.236        -21.439
   1.238        -21.442
   1.240        -21.445
   1.242        -21.448
   1.245        -21.450
   1.247        -21.453
   1.249        -21.456
   1.251        -21.459
   1.253        -21.461
   1.255        -21.464
   1.258        -21.467
   1.260        -21.470
   1.262        -21.473
   1.264        -21.476
   1.266        -21.479
   1.268        -21.482
   1.270        -21.485
   1.273        -21.488
   1.275        -21.491
   1.277        -21.494
   1.279        -21.498
   1.281        -21.501
   1.284        -21.504
   1.286        -21.507
   1.288        -21.511
   1.290        -21.514
   1.292        -21.517
   1.294        -21.520
   1.297        -21.523
   1.299        -21.527
   1.301        -21.530
   1.303        -21.533
   1.305        -21.537
   1.307        -21.540
   1.310        -21.544
   1.312        -21.547
   1.314        -21.551
   1.316        -21.554
   1.318        -21.557
   1.320        -21.561
   1.323        -21.564
   1.325        -21.568
   1.327        -21.571
   1.329        -21.574
   1.331        -21.578
   1.334        -21.582
   1.336        -21.585
   1.338        -21.589
   1.340        -21.592
   1.342        -21.595
   1.344        -21.599
   1.346        -21.603
   1.349        -21.607
   1.351        -21.610
   1.353        -21.614
   1.355        -21.618
   1.357        -21.621
   1.359        -21.625
   1.362        -21.628
   1.364        -21.632
   1.366        -21.635
   1.368        -21.638
   1.370        -21.642
   1.373        -21.645
   1.375        -21.648
   1.377        -21.652
   1.379        -21.655
   1.381        -21.658
   1.383        -21.661
   1.386        -21.664
   1.388        -21.666
   1.390        -21.669
   1.392        -21.671
   1.394        -21.674
   1.397        -21.677
   1.399        -21.679
   1.401        -21.682
   1.403        -21.684
   1.405        -21.687
   1.407        -21.689
   1.410        -21.692
   1.412        -21.695
   1.414        -21.697
   1.416        -21.700
   1.418        -21.702
   1.420        -21.705
   1.423        -21.707
   1.425        -21.710
   1.427        -21.712
   1.429        -21.715
   1.431        -21.717
   1.433        -21.720
   1.436        -21.723
   1.438        -21.725
   1.440        -21.728
   1.442        -21.730
   1.444        -21.733
   1.446        -21.735
   1.449        -21.738
   1.451        -21.740
   1.453        -21.743
   1.455        -21.745
   1.457        -21.747
   1.460        -21.750
   1.462        -21.752
   1.464        -21.755
   1.466        -21.757
   1.468        -21.760
   1.470        -21.762
   1.472        -21.764
   1.475        -21.767
   1.477        -21.769
   1.479        -21.771
   1.481        -21.773
   1.483        -21.776
   1.486        -21.778
   1.488        -21.780
   1.490        -21.783
   1.492        -21.785
   1.494        -21.787
   1.496        -21.790
   1.498        -21.792
   1.501        -21.794
   1.503        -21.797
   1.505        -21.799
   1.507        -21.801
   1.509        -21.804
   1.512        -21.807
   1.514        -21.809
   1.516        -21.812
   1.518        -21.815
   1.520        -21.818
   1.522        -21.820
   1.525        -21.823
   1.527        -21.826
   1.529        -21.829
   1.531        -21.831
   1.533        -21.833
   1.535        -21.836
   1.538        -21.838
   1.540        -21.841
   1.542        -21.843
   1.544        -21.845
   1.546        -21.848
   1.549        -21.850
   1.551        -21.853
   1.553        -21.856
   1.555        -21.859
   1.557        -21.861
   1.559        -21.864
   1.561        -21.867
   1.564        -21.870
   1.566        -21.873
   1.568        -21.875
   1.570        -21.878
   1.572        -21.882
   1.575        -21.885
   1.577        -21.889
   1.579        -21.892
   1.581        -21.896
   1.583        -21.900
   1.585        -21.903
   1.588        -21.907
   1.590        -21.963
   1.592        -22.077
   1.594        -22.083
   1.596        -22.088
   1.598        -22.094
   1.601        -22.099
   1.603        -22.105
   1.605        -22.110
   1.607        -22.116
   1.609        -22.121
   1.611        -22.127
   1.614        -22.133
   1.616        -22.139
   1.618        -22.145
   1.620        -22.151
   1.622        -22.157
   1.624        -22.164
   1.627        -22.170
   1.629        -22.176
   1.631        -22.182
   1.633        -22.189
   1.635        -22.196
   1.637        -22.203
   1.640        -22.210
   1.642        -22.217
   1.644        -22.224
   1.646        -22.231
   1.648        -22.238
   1.651        -22.245
   1.653        -22.252
   1.655        -22.260
   1.657        -22.268
   1.659        -22.276
   1.661        -22.284
   1.664        -22.291
   1.666        -22.299
   1.668        -22.307
   1.670        -22.315
   1.672        -22.323
   1.674        -22.331
   1.676        -22.340
   1.679        -22.349
   1.681        -22.358
   1.683        -22.367
   1.685        -22.376
   1.687        -22.385
   1.690        -22.394
   1.692        -22.403
   1.694        -22.412
   1.696        -22.423
   1.699        -22.437
   1.701        -22.449
   1.703        -22.460
   1.705        -22.471
   1.707        -22.483
   1.709        -22.495
   1.711        -22.507
   1.714        -22.520
   1.716        -22.529
   1.718        -22.550
   1.720        -22.572
   1.722        -22.597
   1.724        -22.623
   1.727        -22.649
   1.729        -22.675
   1.731        -22.701
   1.733        -22.726
   1.735        -22.752
   1.737        -22.773
   1.739        -22.787
   1.742        -22.801
   1.744        -22.815
   1.746        -22.829
   1.748        -22.843
   1.750        -22.857
   1.753        -22.871
   1.755        -22.885
   1.757        -22.898
   1.759        -22.906
   1.761        -22.912
   1.763        -22.918
   1.766        -22.924
   1.768        -22.930
   1.770        -22.936
   1.772        -22.942
   1.774        -22.948
   1.776        -22.954
   1.779        -22.959
   1.781        -22.962
   1.783        -22.965
   1.785        -22.968
   1.787        -22.970
   1.789        -22.973
   1.792        -22.976
   1.794        -22.978
   1.796        -22.981
   1.798        -22.984
   1.800        -22.986
   1.802        -22.988
   1.805        -22.989
   1.807        -22.991
   1.809        -22.993
   1.811        -22.995
   1.813        -22.997
   1.816        -22.998
   1.818        -23.000
   1.820        -23.001
   1.822        -23.003
   1.824        -23.004
   1.826        -23.006
   1.829        -23.007
   1.831        -23.009
   1.833        -23.010
   1.835        -23.012
   1.837        -23.013
   1.839        -23.015
   1.842        -23.016
   1.844        -23.018
   1.846        -23.019
   1.848        -23.021
   1.850        -23.022
   1.852        -23.024
   1.855        -23.025
   1.857        -23.027
   1.859        -23.028
   1.861        -23.029
   1.863        -23.031
   1.865        -23.032
   1.868        -23.034
   1.870        -23.035
   1.872        -23.037
   1.874        -23.038
   1.876        -23.040
   1.878        -23.042
   1.881        -23.043
   1.883        -23.045
   1.885        -23.046
   1.887        -23.048
   1.889        -23.049
   1.891        -23.051
   1.894        -23.053
   1.896        -23.054
   1.898        -23.056
   1.900        -23.057
   1.902        -23.059
   1.905        -23.061
   1.907        -23.062
   1.909        -23.064
   1.911        -23.066
   1.913        -23.067
   1.915        -23.069
   1.918        -23.071
   1.920        -23.072
   1.922        -23.074
   1.924        -23.076
   1.926        -23.077
   1.928        -23.079
   1.931        -23.081
   1.933        -23.083
   1.935        -23.084
   1.937        -23.086
   1.939        -23.088
   1.941        -23.090
   1.944        -23.091
   1.946        -23.093
   1.948        -23.095
   1.950        -23.097
   1.952        -23.099
   1.954        -23.101
   1.957        -23.103
   1.959        -23.105
   1.961        -23.107
   1.963        -23.108
   1.965        -23.110
   1.967        -23.112
   1.970        -23.114
   1.972        -23.116
   1.974        -23.118
   1.976        -23.120
   1.978        -23.122
   1.980        -23.123
   1.983        -23.125
   1.985        -23.127
   1.987        -23.129
   1.989        -23.131
   1.991        -23.133
   1.993        -23.135
   1.996        -23.137
   1.998        -23.139
   2.000        -23.141
   2.002        -23.143
   2.004        -23.145
   2.007        -23.147
   2.009        -23.149
   2.011        -23.151
   2.013        -23.153
   2.015        -23.156
   2.017        -23.158
   2.020        -23.160
   2.022        -23.162
   2.024        -23.164
   2.026        -23.166
   2.028        -23.168
   2.030        -23.170
   2.033        -23.172
   2.035        -23.175
   2.037        -23.177
   2.039        -23.179
   2.041        -23.181
   2.043        -23.183
   2.046        -23.185
   2.048        -23.187
   2.050        -23.189
   2.052        -23.192
   2.054        -23.194
   2.056        -23.196
   2.059        -23.198
   2.061        -23.200
   2.063        -23.202
   2.065        -23.205
   2.067        -23.207
   2.069        -23.209
   2.072        -23.211
   2.074        -23.213
   2.076        -23.215
   2.078        -23.218
   2.080        -23.220
   2.083        -23.222
   2.085        -23.224
   2.087        -23.227
   2.089        -23.229
   2.091        -23.231
   2.093        -23.233
   2.096        -23.236
   2.098        -23.238
   2.100        -23.240
   2.102        -23.242
   2.104        -23.244
   2.106        -23.247
   2.109        -23.249
   2.111        -23.251
   2.113        -23.253
   2.115        -23.256
   2.117        -23.258
   2.120        -23.260
   2.122        -23.262
   2.124        -23.264
   2.126        -23.266
   2.128        -23.268
   2.130        -23.271
   2.133        -23.273
   2.135        -23.275
   2.137        -23.277
   2.139        -23.279
   2.141        -23.282
   2.143        -23.284
   2.145        -23.286
   2.148        -23.288
   2.150        -23.290
   2.152        -23.293
   2.154        -23.295
   2.157        -23.297
   2.158        -23.299
   2.161        -23.302
   2.163        -23.304
   2.165        -23.306
   2.167        -23.308
   2.169        -23.310
   2.172        -23.312
   2.174        -23.315
   2.176        -23.317
   2.178        -23.319
   2.180        -23.321
   2.183        -23.323
   2.185        -23.325
   2.187        -23.327
   2.189        -23.329
   2.191        -23.332
   2.193        -23.334
   2.195        -23.336
   2.197        -23.338
   2.200        -23.340
   2.202        -23.342
   2.204        -23.344
   2.206        -23.346
   2.208        -23.348
   2.211        -23.350
   2.213        -23.353
   2.215        -23.355
   2.217        -23.357
   2.219        -23.359
   2.221        -23.361
   2.224        -23.363
   2.226        -23.365
   2.228        -23.367
   2.230        -23.369
   2.232        -23.371
   2.235        -23.373
   2.237        -23.375
   2.239        -23.377
   2.241        -23.379
   2.243        -23.381
   2.245        -23.383
   2.247        -23.385
   2.250        -23.386
   2.252        -23.388
   2.254        -23.390
   2.256        -23.392
   2.259        -23.394
   2.261        -23.396
   2.263        -23.398
   2.265        -23.400
   2.267        -23.402
   2.269        -23.403
   2.271        -23.405
   2.274        -23.407
   2.276        -23.409
   2.278        -23.411
   2.280        -23.413
   2.282        -23.414
   2.284        -23.416
   2.287        -23.418
   2.289        -23.420
   2.291        -23.421
   2.293        -23.423
   2.295        -23.425
   2.297        -23.427
   2.299        -23.428
   2.302        -23.430
   2.304        -23.432
   2.306        -23.434
   2.308        -23.435
   2.310        -23.437
   2.313        -23.438
   2.315        -23.440
   2.317        -23.442
   2.319        -23.443
   2.321        -23.445
   2.323        -23.447
   2.326        -23.448
   2.328        -23.450
   2.330        -23.452
   2.332        -23.453
   2.334        -23.455
   2.337        -23.457
   2.339        -23.458
   2.341        -23.460
   2.343        -23.462
   2.345        -23.463
   2.347        -23.465
   2.349        -23.466
   2.352        -23.468
   2.354        -23.470
   2.356        -23.471
   2.358        -23.473
   2.360        -23.474
   2.363        -23.476
   2.365        -23.478
   2.367        -23.480
   2.369        -23.481
   2.371        -23.483
   2.374        -23.484
   2.376        -23.486
   2.378        -23.488
   2.380        -23.489
   2.382        -23.491
   2.384        -23.493
   2.386        -23.494
   2.389        -23.496
   2.391        -23.498
   2.393        -23.499
   2.395        -23.501
   2.397        -23.503
   2.400        -23.504
   2.402        -23.506
   2.404        -23.508
   2.406        -23.510
   2.408        -23.511
   2.410        -23.513
   2.413        -23.515
   2.415        -23.517
   2.417        -23.518
   2.419        -23.520
   2.421        -23.522
   2.423        -23.524
   2.425        -23.525
   2.428        -23.527
   2.430        -23.528
   2.432        -23.529
   2.434        -23.531
   2.436        -23.532
   2.439        -23.534
   2.441        -23.535
   2.443        -23.537
   2.445        -23.538
   2.447        -23.539
   2.449        -23.540
   2.452        -23.541
   2.454        -23.542
   2.456        -23.543
   2.458        -23.544
   2.460        -23.546
   2.462        -23.546
   2.465        -23.548
   2.467        -23.549
   2.469        -23.550
   2.471        -23.551
   2.473        -23.552
   2.475        -23.553
   2.478        -23.554
   2.480        -23.555
   2.482        -23.556
   2.484        -23.557
   2.486        -23.559
   2.489        -23.560
   2.491        -23.561
   2.493        -23.562
   2.495        -23.563
   2.497        -23.565
   2.499        -23.566
   2.502        -23.567
   2.504        -23.568
   2.506        -23.569
   2.508        -23.571
   2.510        -23.572
   2.512        -23.573
   2.514        -23.575
   2.517        -23.576
   2.519        -23.577
   2.521        -23.579
   2.523        -23.580
   2.525        -23.581
   2.528        -23.583
   2.530        -23.584
   2.532        -23.586
   2.534        -23.588
   2.536        -23.589
   2.538        -23.591
   2.541        -23.593
   2.543        -23.594
   2.545        -23.596
   2.547        -23.598
   2.549        -23.599
   2.552        -23.602
   2.554        -23.603
   2.556        -23.605
   2.558        -23.608
   2.560        -23.610
   2.562        -23.612
   2.565        -23.614
   2.567        -23.616
   2.569        -23.618
   2.571        -23.620
   2.573        -23.622
   2.575        -23.625
   2.578        -23.627
   2.580        -23.630
   2.582        -23.632
   2.584        -23.635
   2.586        -23.637
   2.588        -23.640
   2.590        -23.642
   2.593        -23.645
   2.595        -23.649
   2.597        -23.652
   2.599        -23.655
   2.601        -23.658
   2.604        -23.661
   2.606        -23.664
   2.608        -23.667
   2.610        -23.670
   2.612        -23.674
   2.614        -23.677
   2.617        -23.681
   2.619        -23.685
   2.621        -23.689
   2.623        -23.693
   2.625        -23.697
   2.627        -23.700
   2.630        -23.704
   2.632        -23.708
   2.634        -23.713
   2.636        -23.717
   2.638        -23.722
   2.641        -23.727
   2.643        -23.732
   2.645        -23.736
   2.647        -23.741
   2.649        -23.746
   2.651        -23.751
   2.654        -23.756
   2.656        -23.761
   2.658        -23.767
   2.660        -23.773
   2.662        -23.779
   2.664        -23.784
   2.666        -23.790
   2.669        -23.796
   2.671        -23.802
   2.673        -23.807
   2.675        -23.814
   2.677        -23.820
   2.680        -23.827
   2.682        -23.833
   2.684        -23.840
   2.686        -23.846
   2.688        -23.853
   2.690        -23.859
   2.693        -23.866
   2.695        -23.872
   2.697        -23.878
   2.699        -23.884
   2.701        -23.891
   2.703        -23.897
   2.706        -23.903
   2.708        -23.909
   2.710        -23.915
   2.712        -23.921
   2.714        -23.927
   2.716        -23.933
   2.719        -23.938
   2.721        -23.943
   2.723        -23.949
   2.725        -23.954
   2.727        -23.959
   2.729        -23.964
   2.732        -23.970
   2.734        -23.975
   2.736        -23.980
   2.738        -23.985
   2.740        -23.989
   2.743        -23.994
   2.745        -23.998
   2.747        -24.003
   2.749        -24.008
   2.751        -24.012
   2.753        -24.017
   2.756        -24.021
   2.758        -24.026
   2.760        -24.030
   2.762        -24.034
   2.764        -24.038
   2.766        -24.042
   2.769        -24.047
   2.771        -24.051
   2.773        -24.055
   2.775        -24.059
   2.777        -24.063
   2.779        -24.067
   2.782        -24.071
   2.784        -24.074
   2.786        -24.078
   2.788        -24.082
   2.790        -24.085
   2.792        -24.089
   2.795        -24.093
   2.797        -24.096
   2.799        -24.100
   2.801        -24.103
   2.803        -24.106
   2.805        -24.110
   2.808        -24.113
   2.810        -24.116
   2.812        -24.119
   2.814        -24.123
   2.816        -24.126
   2.819        -24.129
   2.821        -24.132
   2.823        -24.135
   2.825        -24.138
   2.827        -24.141
   2.829        -24.144
   2.832        -24.147
   2.834        -24.150
   2.836        -24.153
   2.838        -24.156
   2.840        -24.158
   2.842        -24.161
   2.845        -24.164
   2.847        -24.166
   2.849        -24.169
   2.851        -24.171
   2.853        -24.174
   2.855        -24.176
   2.858        -24.179
   2.860        -24.181
   2.862        -24.184
   2.864        -24.186
   2.866        -24.188
   2.868        -24.190
   2.871        -24.192
   2.873        -24.195
   2.875        -24.197
   2.877        -24.199
   2.879        -24.201
   2.881        -24.204
   2.884        -24.206
   2.886        -24.208
   2.888        -24.210
   2.890        -24.212
   2.892        -24.214
   2.894        -24.216
   2.897        -24.218
   2.899        -24.220
   2.901        -24.222
   2.903        -24.224
   2.905        -24.225
   2.908        -24.227
   2.910        -24.229
   2.912        -24.230
   2.914        -24.232
   2.916        -24.234
   2.918        -24.235
   2.921        -24.237
   2.923        -24.239
   2.925        -24.241
   2.927        -24.242
   2.929        -24.243
   2.931        -24.245
   2.934        -24.246
   2.936        -24.248
   2.938        -24.249
   2.940        -24.250
   2.942        -24.252
   2.944        -24.253
   2.947        -24.255
   2.949        -24.256
   2.951        -24.257
   2.953        -24.259
   2.955        -24.260
   2.957        -24.261
   2.960        -24.262
   2.962        -24.264
   2.964        -24.265
   2.966        -24.266
   2.968        -24.268
   2.970        -24.269
   2.973        -24.270
   2.975        -24.271
   2.977        -24.272
   2.979        -24.274
   2.981        -24.275
   2.984        -24.276
   2.986        -24.277
   2.988        -24.278
   2.990        -24.280
   2.992        -24.281
   2.994        -24.282
   2.997        -24.283
   2.999        -24.284
   3.001        -24.285
   3.003        -24.286
   3.005        -24.288
   3.007        -24.289
   3.010        -24.290
   3.012        -24.291
   3.014        -24.292
   3.016        -24.293
   3.018        -24.294
   3.020        -24.295
   3.023        -24.296
   3.025        -24.297
   3.027        -24.298
   3.029        -24.300
   3.031        -24.301
   3.033        -24.302
   3.036        -24.303
   3.038        -24.304
   3.040        -24.305
   3.042        -24.306
   3.044        -24.307
   3.046        -24.308
   3.049        -24.309
   3.051        -24.310
   3.053        -24.311
   3.055        -24.313
   3.057        -24.314
   3.060        -24.315
   3.062        -24.316
   3.064        -24.317
   3.066        -24.318
   3.068        -24.319
   3.070        -24.320
   3.073        -24.321
   3.075        -24.322
   3.077        -24.323
   3.079        -24.324
   3.081        -24.325
   3.083        -24.326
   3.086        -24.327
   3.088        -24.328
   3.090        -24.329
   3.092        -24.330
   3.094        -24.331
   3.096        -24.332
   3.099        -24.333
   3.101        -24.334
   3.103        -24.335
   3.105        -24.336
   3.107        -24.337
   3.109        -24.338
   3.112        -24.339
   3.114        -24.340
   3.116        -24.341
   3.118        -24.342
   3.120        -24.343
   3.123        -24.344
   3.125        -24.345
   3.127        -24.346
   3.129        -24.347
   3.131        -24.347
   3.133        -24.349
   3.136        -24.350
   3.138        -24.351
   3.140        -24.351
   3.142        -24.353
   3.144        -24.354
   3.146        -24.354
   3.149        -24.355
   3.151        -24.356
   3.153        -24.358
   3.155        -24.358
   3.157        -24.359
   3.159        -24.360
   3.162        -24.361
   3.164        -24.362
   3.166        -24.363
   3.168        -24.364
   3.170        -24.365
   3.172        -24.366
   3.175        -24.367
   3.177        -24.368
   3.179        -24.369
   3.181        -24.370
   3.183        -24.371
   3.185        -24.372
   3.188        -24.373
   3.190        -24.374
   3.192        -24.375
   3.194        -24.376
   3.196        -24.377
   3.199        -24.378
   3.201        -24.379
   3.203        -24.380
   3.205        -24.381
   3.207        -24.382
   3.209        -24.383
   3.212        -24.384
   3.214        -24.385
   3.216        -24.386
   3.218        -24.387
   3.220        -24.388
   3.222        -24.389
   3.225        -24.390
   3.227        -24.391
   3.229        -24.392
   3.231        -24.393
   3.233        -24.394
   3.236        -24.395
   3.237        -24.396
   3.240        -24.397
   3.242        -24.398
   3.244        -24.399
   3.246        -24.400
   3.248        -24.401
   3.251        -24.402
   3.253        -24.403
   3.255        -24.404
   3.257        -24.405
   3.259        -24.406
   3.261        -24.407
   3.263        -24.407
   3.266        -24.408
   3.268        -24.409
   3.270        -24.410
   3.272        -24.411
   3.274        -24.412
   3.277        -24.413
   3.279        -24.414
   3.281        -24.415
   3.283        -24.416
   3.285        -24.417
   3.287        -24.418
   3.290        -24.419
   3.292        -24.420
   3.294        -24.421
   3.296        -24.422
   3.298        -24.423
   3.301        -24.424
   3.303        -24.425
   3.305        -24.426
   3.307        -24.427
   3.309        -24.428
   3.311        -24.429
   3.313        -24.430
   3.316        -24.431
   3.318        -24.433
   3.320        -24.434
   3.322        -24.435
   3.324        -24.436
   3.327        -24.437
   3.329        -24.438
   3.331        -24.439
   3.333        -24.441
   3.335        -24.442
   3.337        -24.443
   3.340        -24.444
   3.342        -24.445
   3.344        -24.446
   3.346        -24.447
   3.348        -24.448
   3.350        -24.449
   3.352        -24.450
   3.355        -24.451
   3.357        -24.453
   3.359        -24.454
   3.361        -24.455
   3.363        -24.456
   3.366        -24.457
   3.368        -24.458
   3.370        -24.459
   3.372        -24.460
   3.374        -24.461
   3.376        -24.462
   3.379        -24.463
   3.381        -24.464
   3.383        -24.465
   3.385        -24.466
   3.387        -24.467
   3.389        -24.468
   3.392        -24.469
   3.394        -24.470
   3.396        -24.471
   3.398        -24.472
   3.400        -24.473
   3.402        -24.474
   3.405        -24.475
   3.407        -24.476
   3.409        -24.477
   3.411        -24.478
   3.413        -24.479
   3.416        -24.480
   3.418        -24.481
   3.420        -24.482
   3.422        -24.483
   3.424        -24.484
   3.426        -24.485
   3.429        -24.486
   3.431        -24.487
   3.433        -24.488
   3.435        -24.489
   3.437        -24.490
   3.439        -24.491
   3.442        -24.492
   3.444        -24.493
   3.446        -24.494
   3.448        -24.495
   3.450        -24.496
   3.452        -24.497
   3.455        -24.498
   3.457        -24.499
   3.459        -24.500
   3.461        -24.501
   3.463        -24.502
   3.466        -24.503
   3.468        -24.504
   3.470        -24.505
   3.472        -24.506
   3.474        -24.506
   3.476        -24.507
   3.478        -24.508
   3.481        -24.509
   3.483        -24.510
   3.485        -24.511
   3.487        -24.512
   3.489        -24.513
   3.492        -24.514
   3.494        -24.515
   3.496        -24.516
   3.498        -24.517
   3.500        -24.518
   3.502        -24.519
   3.505        -24.520
   3.507        -24.521
   3.509        -24.522
   3.511        -24.523
   3.513        -24.524
   3.515        -24.525
   3.518        -24.526
   3.520        -24.527
   3.522        -24.528
   3.524        -24.529
   3.526        -24.530
   3.528        -24.531
   3.531        -24.532
   3.533        -24.533
   3.535        -24.534
   3.537        -24.535
   3.539        -24.536
   3.541        -24.536
   3.544        -24.538
   3.546        -24.538
   3.548        -24.539
   3.550        -24.540
   3.552        -24.541
   3.555        -24.542
   3.557        -24.543
   3.559        -24.544
   3.561        -24.545
   3.563        -24.546
   3.565        -24.547
   3.568        -24.548
   3.570        -24.549
   3.572        -24.550
   3.574        -24.551
   3.576        -24.552
   3.578        -24.553
   3.581        -24.554
   3.583        -24.555
   3.585        -24.556
   3.587        -24.557
   3.589        -24.558
   3.591        -24.559
   3.594        -24.560
   3.596        -24.560
   3.598        -24.561
   3.600        -24.562
   3.602        -24.563
   3.604        -24.564
   3.607        -24.565
   3.609        -24.566
   3.611        -24.567
   3.613        -24.568
   3.615        -24.569
   3.617        -24.570
   3.620        -24.571
   3.622        -24.572
   3.624        -24.573
   3.626        -24.574
   3.628        -24.575
   3.630        -24.576
   3.633        -24.577
   3.635        -24.578
   3.637        -24.579
   3.639        -24.580
   3.641        -24.581
   3.644        -24.582
   3.646        -24.583
   3.648        -24.584
   3.650        -24.585
   3.652        -24.586
   3.654        -24.587
   3.657        -24.588
   3.659        -24.589
   3.661        -24.590
   3.663        -24.591
   3.665        -24.592
   3.667        -24.593
   3.670        -24.594
   3.672        -24.595
   3.674        -24.596
   3.676        -24.597
   3.678        -24.598
   3.680        -24.599
   3.683        -24.600
   3.685        -24.601
   3.687        -24.602
   3.689        -24.603
   3.691        -24.604
   3.693        -24.605
   3.696        -24.607
   3.698        -24.607
   3.700        -24.609
   3.702        -24.610
   3.704        -24.611
   3.706        -24.612
   3.709        -24.613
   3.711        -24.614
   3.713        -24.615
   3.715        -24.616
   3.717        -24.617
   3.719        -24.619
   3.722        -24.620
   3.724        -24.621
   3.726        -24.622
   3.728        -24.623
   3.730        -24.624
   3.733        -24.626
   3.735        -24.627
   3.737        -24.628
   3.739        -24.629
   3.741        -24.630
   3.743        -24.632
   3.746        -24.633
   3.748        -24.634
   3.750        -24.635
   3.752        -24.637
   3.754        -24.638
   3.756        -24.639
   3.759        -24.640
   3.761        -24.642
   3.763        -24.643
   3.765        -24.644
   3.767        -24.646
   3.769        -24.647
   3.772        -24.648
   3.774        -24.650
   3.776        -24.651
   3.778        -24.652
   3.780        -24.654
   3.782        -24.655
   3.785        -24.656
   3.787        -24.658
   3.789        -24.659
   3.791        -24.661
   3.793        -24.662
   3.795        -24.663
   3.798        -24.665
   3.800        -24.666
   3.802        -24.668
   3.804        -24.669
   3.806        -24.671
   3.809        -24.672
   3.811        -24.674
   3.813        -24.675
   3.815        -24.676
   3.817        -24.678
   3.819        -24.680
   3.822        -24.681
   3.824        -24.682
   3.826        -24.684
   3.828        -24.685
   3.830        -24.686
   3.832        -24.688
   3.835        -24.689
   3.837        -24.691
   3.839        -24.692
   3.841        -24.693
   3.843        -24.694
   3.845        -24.695
   3.848        -24.696
   3.850        -24.697
   3.852        -24.698
   3.854        -24.699
   3.856        -24.700
   3.858        -24.701
   3.861        -24.702
   3.863        -24.703
   3.865        -24.703
   3.867        -24.704
   3.869        -24.705
   3.871        -24.706
   3.874        -24.706
   3.876        -24.707
   3.878        -24.708
   3.880        -24.708
   3.882        -24.709
   3.885        -24.710
   3.887        -24.710
   3.889        -24.711
   3.891        -24.712
   3.899        -24.714
   3.912        -24.718
   3.925        -24.722
   3.938        -24.726
   3.951        -24.730
   3.964        -24.734
   3.977        -24.737
   3.990        -24.741
   4.003        -24.745
   4.016        -24.749
   4.029        -24.752
   4.042        -24.756
   4.055        -24.760
   4.068        -24.764
   4.081        -24.768
   4.094        -24.772
   4.107        -24.776
   4.120        -24.780
   4.133        -24.784
   4.146        -24.788
   4.159        -24.792
   4.172        -24.797
   4.185        -24.802
   4.198        -24.806
   4.211        -24.812
   4.224        -24.817
   4.237        -24.823
   4.250        -24.829
   4.263        -24.835
   4.276        -24.842
   4.289        -24.850
   4.302        -24.858
   4.315        -24.866
   4.328        -24.875
   4.341        -24.884
   4.354        -24.893
   4.367        -24.903
   4.380        -24.913
   4.393        -24.924
   4.406        -24.935
   4.420        -24.947
   4.432        -24.958
   4.445        -24.970
   4.459        -24.982
   4.471        -24.995
   4.484        -25.007
   4.498        -25.020
   4.510        -25.033
   4.524        -25.047
   4.537        -25.060
   4.550        -25.074
   4.563        -25.088
   4.576        -25.102
   4.589        -25.116
   4.602        -25.131
   4.615        -25.145
   4.628        -25.160
   4.641        -25.175
   4.654        -25.190
   4.667        -25.205
   4.680        -25.221
   4.693        -25.236
   4.706        -25.252
   4.719        -25.268
   4.732        -25.284
   4.745        -25.300
   4.758        -25.316
   4.771        -25.333
   4.784        -25.349
   4.797        -25.366
   4.810        -25.383
   4.823        -25.400
   4.836        -25.417
   4.849        -25.434
   4.862        -25.451
   4.875        -25.469
   4.888        -25.487
   4.901        -25.505
   4.914        -25.522
   4.927        -25.540
   4.940        -25.559
   4.953        -25.577
   4.966        -25.596
   4.979        -25.615
   4.992        -25.633
   5.005        -25.652
   5.018        -25.671
   5.031        -25.690
   5.044        -25.710
   5.057        -25.729
   5.070        -25.749
   5.083        -25.769
   5.096        -25.788
   5.109        -25.808
   5.123        -25.828
   5.136        -25.848
   5.149        -25.868
   5.162        -25.888
   5.175        -25.909
   5.188        -25.929
   5.201        -25.949
   5.214        -25.970
   5.227        -25.990
   5.240        -26.011
   5.253        -26.031
   5.266        -26.052
   5.279        -26.073
   5.292        -26.093
   5.305        -26.114
   5.318        -26.135
   5.331        -26.157
   5.344        -26.178
   5.357        -26.200
   5.370        -26.221
   5.383        -26.243
   5.396        -26.265
   5.409        -26.288
   5.422        -26.310
   5.435        -26.333
   5.448        -26.356
   5.461        -26.380
   5.474        -26.403
   5.487        -26.427
   5.500        -26.451
   5.513        -26.476
   5.526        -26.500
   5.539        -26.526
   5.552        -26.551
   5.565        -26.577
   5.578        -26.603
   5.591        -26.630
   5.604        -26.657
   5.617        -26.684
   5.630        -26.711
   5.643        -26.740
   5.656        -26.768
   5.669        -26.797
   5.682        -26.827
   5.695        -26.857
   5.708        -26.887
   5.721        -26.918
   5.734        -26.949
   5.748        -26.981
   5.761        -27.014
   5.774        -27.046
   5.787        -27.080
   5.800        -27.115
   5.813        -27.149
   5.826        -27.185
   5.839        -27.221
   5.852        -27.258
   5.865        -27.295
   5.878        -27.334
   5.891        -27.373
   5.904        -27.413
   5.917        -27.453
   5.930        -27.495
   5.943        -27.537
   5.956        -27.580
   5.969        -27.623
   5.982        -27.668
   5.995        -27.715
   6.008        -27.762
   6.021        -27.809
   6.034        -27.857
   6.047        -27.906
   6.060        -27.958
   6.073        -28.010
   6.086        -28.063
   6.099        -28.117
   6.112        -28.173
   6.125        -28.229
   6.138        -28.287
   6.151        -28.346
   6.164        -28.407
   6.177        -28.468
   6.190        -28.532
   6.203        -28.597
   6.216        -28.663
   6.229        -28.731
   6.242        -28.800
   6.255        -28.871
   6.268        -28.944
   6.281        -29.019
   6.294        -29.095
   6.307        -29.172
   6.320        -29.252
   6.334        -29.334
   6.346        -29.418
   6.359        -29.504
   6.372        -29.592
   6.386        -29.682
   6.399        -29.774
   6.411        -29.869
   6.425        -29.966
   6.438        -30.066
   6.451        -30.168
   6.464        -30.271
   6.477        -30.377
   6.490        -30.487
   6.503        -30.601
   6.516        -30.716
   6.529        -30.834
   6.542        -30.956
   6.555        -31.081
   6.568        -31.208
   6.581        -31.339
   6.594        -31.474
   6.607        -31.614
   6.620        -31.756
   6.633        -31.900
   6.646        -32.047
   6.659        -32.200
   6.672        -32.358
   6.685        -32.519
   6.698        -32.684
   6.711        -32.854
   6.724        -33.031
   6.737        -33.210
   6.750        -33.391
   6.763        -33.585
   6.776        -33.787
   6.789        -33.989
   6.802        -34.194
   6.815        -34.406
   6.828        -34.647
   6.841        -34.911
   6.854        -35.216
   6.867        -35.853
   6.880        -36.915
   6.893        -40.629
