# log Energy    log Jnu
# (eV)          (ergs/s/cm2/Hz/Sr)
  -6.864        -20.445
  -6.820        -20.359
  -6.777        -20.272
  -6.734        -20.185
  -6.690        -20.098
  -6.647        -20.011
  -6.603        -19.924
  -6.560        -19.837
  -6.516        -19.751
  -6.473        -19.664
  -6.430        -19.577
  -6.386        -19.490
  -6.343        -19.403
  -6.299        -19.316
  -6.256        -19.230
  -6.212        -19.143
  -6.169        -19.056
  -6.126        -18.969
  -6.082        -18.882
  -6.039        -18.795
  -5.995        -18.709
  -5.952        -18.622
  -5.908        -18.535
  -5.865        -18.448
  -5.822        -18.361
  -5.778        -18.274
  -5.735        -18.188
  -5.691        -18.101
  -5.648        -18.014
  -5.605        -17.927
  -5.561        -17.841
  -5.518        -17.754
  -5.474        -17.667
  -5.431        -17.580
  -5.387        -17.493
  -5.344        -17.407
  -5.300        -17.320
  -5.257        -17.233
  -5.214        -17.147
  -5.170        -17.060
  -5.127        -16.973
  -5.083        -16.887
  -5.040        -16.800
  -4.996        -16.713
  -4.953        -16.627
  -4.910        -16.540
  -4.866        -16.454
  -4.823        -16.367
  -4.779        -16.281
  -4.736        -16.195
  -4.692        -16.108
  -4.649        -16.022
  -4.606        -15.936
  -4.562        -15.850
  -4.519        -15.764
  -4.475        -15.678
  -4.432        -15.592
  -4.388        -15.506
  -4.345        -15.421
  -4.302        -15.335
  -4.258        -15.250
  -4.215        -15.165
  -4.171        -15.080
  -4.128        -14.995
  -4.084        -14.910
  -4.041        -14.826
  -3.998        -14.742
  -3.954        -14.658
  -3.911        -14.575
  -3.867        -14.491
  -3.824        -14.409
  -3.781        -14.327
  -3.737        -14.245
  -3.693        -14.164
  -3.650        -14.083
  -3.607        -14.004
  -3.584        -13.967
  -3.582        -13.957
  -3.580        -13.955
  -3.577        -13.952
  -3.575        -13.948
  -3.573        -13.944
  -3.571        -13.940
  -3.569        -13.936
  -3.567        -13.932
  -3.564        -13.928
  -3.562        -13.924
  -3.560        -13.920
  -3.558        -13.916
  -3.556        -13.913
  -3.554        -13.908
  -3.551        -13.905
  -3.549        -13.901
  -3.547        -13.897
  -3.545        -13.893
  -3.543        -13.889
  -3.540        -13.885
  -3.538        -13.881
  -3.536        -13.877
  -3.534        -13.873
  -3.532        -13.870
  -3.530        -13.866
  -3.528        -13.862
  -3.525        -13.858
  -3.523        -13.854
  -3.521        -13.850
  -3.519        -13.846
  -3.517        -13.842
  -3.514        -13.839
  -3.512        -13.835
  -3.510        -13.830
  -3.508        -13.827
  -3.506        -13.823
  -3.504        -13.819
  -3.502        -13.815
  -3.499        -13.811
  -3.497        -13.807
  -3.495        -13.804
  -3.493        -13.800
  -3.491        -13.796
  -3.488        -13.792
  -3.486        -13.788
  -3.484        -13.784
  -3.482        -13.780
  -3.480        -13.777
  -3.477        -13.773
  -3.475        -13.769
  -3.473        -13.765
  -3.471        -13.761
  -3.469        -13.758
  -3.467        -13.754
  -3.464        -13.750
  -3.462        -13.746
  -3.460        -13.742
  -3.458        -13.738
  -3.456        -13.735
  -3.454        -13.731
  -3.451        -13.727
  -3.449        -13.723
  -3.447        -13.719
  -3.445        -13.716
  -3.443        -13.712
  -3.441        -13.708
  -3.438        -13.704
  -3.436        -13.700
  -3.434        -13.697
  -3.432        -13.693
  -3.430        -13.689
  -3.428        -13.686
  -3.425        -13.682
  -3.423        -13.678
  -3.421        -13.674
  -3.419        -13.670
  -3.417        -13.667
  -3.415        -13.663
  -3.412        -13.659
  -3.410        -13.655
  -3.408        -13.652
  -3.406        -13.648
  -3.404        -13.644
  -3.402        -13.640
  -3.399        -13.637
  -3.397        -13.633
  -3.395        -13.629
  -3.393        -13.625
  -3.391        -13.622
  -3.389        -13.618
  -3.386        -13.614
  -3.384        -13.611
  -3.382        -13.607
  -3.380        -13.603
  -3.378        -13.600
  -3.376        -13.596
  -3.373        -13.592
  -3.371        -13.588
  -3.369        -13.585
  -3.367        -13.581
  -3.365        -13.577
  -3.362        -13.574
  -3.360        -13.570
  -3.358        -13.567
  -3.356        -13.563
  -3.354        -13.559
  -3.352        -13.555
  -3.349        -13.552
  -3.347        -13.548
  -3.345        -13.545
  -3.343        -13.541
  -3.341        -13.537
  -3.339        -13.534
  -3.336        -13.530
  -3.334        -13.527
  -3.332        -13.523
  -3.330        -13.519
  -3.328        -13.516
  -3.326        -13.512
  -3.323        -13.508
  -3.321        -13.505
  -3.319        -13.501
  -3.317        -13.498
  -3.315        -13.494
  -3.313        -13.490
  -3.310        -13.487
  -3.308        -13.483
  -3.306        -13.480
  -3.304        -13.476
  -3.302        -13.473
  -3.300        -13.469
  -3.297        -13.466
  -3.295        -13.462
  -3.293        -13.458
  -3.291        -13.455
  -3.289        -13.451
  -3.287        -13.448
  -3.284        -13.444
  -3.282        -13.441
  -3.280        -13.437
  -3.278        -13.434
  -3.276        -13.430
  -3.273        -13.427
  -3.271        -13.423
  -3.269        -13.420
  -3.267        -13.416
  -3.265        -13.413
  -3.263        -13.409
  -3.260        -13.406
  -3.258        -13.402
  -3.256        -13.399
  -3.254        -13.396
  -3.252        -13.392
  -3.250        -13.389
  -3.247        -13.385
  -3.245        -13.382
  -3.243        -13.378
  -3.241        -13.375
  -3.239        -13.372
  -3.237        -13.368
  -3.234        -13.365
  -3.232        -13.361
  -3.230        -13.358
  -3.228        -13.354
  -3.226        -13.351
  -3.224        -13.348
  -3.221        -13.344
  -3.219        -13.341
  -3.217        -13.338
  -3.215        -13.334
  -3.213        -13.331
  -3.211        -13.327
  -3.208        -13.324
  -3.206        -13.321
  -3.204        -13.317
  -3.202        -13.314
  -3.200        -13.311
  -3.197        -13.308
  -3.195        -13.304
  -3.193        -13.301
  -3.191        -13.298
  -3.189        -13.294
  -3.187        -13.291
  -3.184        -13.288
  -3.182        -13.285
  -3.180        -13.281
  -3.178        -13.278
  -3.176        -13.275
  -3.174        -13.271
  -3.171        -13.268
  -3.169        -13.265
  -3.167        -13.262
  -3.165        -13.259
  -3.163        -13.255
  -3.161        -13.252
  -3.158        -13.249
  -3.156        -13.245
  -3.154        -13.243
  -3.152        -13.239
  -3.150        -13.236
  -3.148        -13.233
  -3.145        -13.230
  -3.143        -13.226
  -3.141        -13.223
  -3.139        -13.220
  -3.137        -13.217
  -3.135        -13.214
  -3.132        -13.211
  -3.130        -13.208
  -3.128        -13.204
  -3.126        -13.201
  -3.124        -13.198
  -3.122        -13.195
  -3.119        -13.192
  -3.117        -13.189
  -3.115        -13.186
  -3.113        -13.183
  -3.111        -13.180
  -3.108        -13.177
  -3.106        -13.174
  -3.104        -13.171
  -3.102        -13.168
  -3.100        -13.165
  -3.098        -13.162
  -3.095        -13.159
  -3.093        -13.156
  -3.091        -13.153
  -3.089        -13.150
  -3.087        -13.147
  -3.085        -13.144
  -3.082        -13.141
  -3.080        -13.138
  -3.078        -13.135
  -3.076        -13.132
  -3.074        -13.129
  -3.072        -13.126
  -3.069        -13.123
  -3.067        -13.120
  -3.065        -13.117
  -3.063        -13.114
  -3.061        -13.112
  -3.059        -13.109
  -3.056        -13.106
  -3.054        -13.103
  -3.052        -13.100
  -3.050        -13.097
  -3.048        -13.095
  -3.046        -13.092
  -3.043        -13.089
  -3.041        -13.086
  -3.039        -13.083
  -3.037        -13.081
  -3.035        -13.078
  -3.032        -13.075
  -3.030        -13.072
  -3.028        -13.069
  -3.026        -13.067
  -3.024        -13.064
  -3.022        -13.061
  -3.019        -13.059
  -3.017        -13.056
  -3.015        -13.053
  -3.013        -13.051
  -3.011        -13.048
  -3.009        -13.045
  -3.006        -13.043
  -3.004        -13.040
  -3.002        -13.037
  -3.000        -13.035
  -2.998        -13.032
  -2.996        -13.030
  -2.993        -13.027
  -2.991        -13.024
  -2.989        -13.022
  -2.987        -13.019
  -2.985        -13.017
  -2.983        -13.014
  -2.980        -13.011
  -2.978        -13.009
  -2.976        -13.007
  -2.974        -13.004
  -2.972        -13.001
  -2.970        -12.999
  -2.967        -12.997
  -2.965        -12.994
  -2.963        -12.992
  -2.961        -12.989
  -2.959        -12.987
  -2.956        -12.984
  -2.954        -12.982
  -2.952        -12.980
  -2.950        -12.977
  -2.948        -12.975
  -2.946        -12.973
  -2.944        -12.970
  -2.941        -12.968
  -2.939        -12.966
  -2.937        -12.963
  -2.935        -12.961
  -2.933        -12.959
  -2.930        -12.956
  -2.928        -12.954
  -2.926        -12.952
  -2.924        -12.950
  -2.922        -12.947
  -2.920        -12.945
  -2.917        -12.943
  -2.915        -12.941
  -2.913        -12.939
  -2.911        -12.937
  -2.909        -12.935
  -2.907        -12.932
  -2.904        -12.930
  -2.902        -12.928
  -2.900        -12.926
  -2.898        -12.924
  -2.896        -12.922
  -2.894        -12.920
  -2.891        -12.918
  -2.889        -12.916
  -2.887        -12.914
  -2.885        -12.912
  -2.883        -12.910
  -2.880        -12.908
  -2.878        -12.906
  -2.876        -12.904
  -2.874        -12.902
  -2.872        -12.900
  -2.870        -12.898
  -2.867        -12.897
  -2.865        -12.895
  -2.863        -12.893
  -2.861        -12.891
  -2.859        -12.889
  -2.857        -12.887
  -2.855        -12.885
  -2.852        -12.884
  -2.850        -12.882
  -2.848        -12.880
  -2.846        -12.878
  -2.843        -12.877
  -2.842        -12.875
  -2.839        -12.874
  -2.837        -12.872
  -2.835        -12.870
  -2.833        -12.869
  -2.831        -12.867
  -2.828        -12.865
  -2.826        -12.864
  -2.824        -12.862
  -2.822        -12.861
  -2.820        -12.859
  -2.817        -12.858
  -2.815        -12.856
  -2.813        -12.855
  -2.811        -12.853
  -2.809        -12.852
  -2.807        -12.850
  -2.805        -12.849
  -2.802        -12.848
  -2.800        -12.846
  -2.798        -12.845
  -2.796        -12.844
  -2.794        -12.842
  -2.792        -12.841
  -2.789        -12.839
  -2.787        -12.838
  -2.785        -12.837
  -2.783        -12.836
  -2.781        -12.835
  -2.779        -12.834
  -2.776        -12.833
  -2.774        -12.831
  -2.772        -12.830
  -2.770        -12.829
  -2.767        -12.828
  -2.765        -12.827
  -2.763        -12.826
  -2.761        -12.825
  -2.759        -12.824
  -2.757        -12.823
  -2.754        -12.822
  -2.753        -12.821
  -2.750        -12.820
  -2.748        -12.819
  -2.746        -12.818
  -2.744        -12.817
  -2.741        -12.817
  -2.739        -12.816
  -2.737        -12.815
  -2.735        -12.814
  -2.733        -12.813
  -2.731        -12.813
  -2.729        -12.812
  -2.726        -12.811
  -2.724        -12.811
  -2.722        -12.810
  -2.720        -12.809
  -2.718        -12.809
  -2.716        -12.808
  -2.713        -12.808
  -2.711        -12.807
  -2.709        -12.807
  -2.707        -12.806
  -2.705        -12.806
  -2.703        -12.805
  -2.700        -12.805
  -2.698        -12.804
  -2.696        -12.804
  -2.694        -12.804
  -2.692        -12.804
  -2.689        -12.803
  -2.687        -12.803
  -2.685        -12.803
  -2.683        -12.802
  -2.681        -12.802
  -2.679        -12.802
  -2.677        -12.802
  -2.674        -12.802
  -2.672        -12.802
  -2.670        -12.802
  -2.668        -12.802
  -2.666        -12.802
  -2.663        -12.802
  -2.661        -12.802
  -2.659        -12.802
  -2.657        -12.802
  -2.655        -12.802
  -2.653        -12.802
  -2.650        -12.803
  -2.648        -12.803
  -2.646        -12.803
  -2.644        -12.803
  -2.642        -12.803
  -2.640        -12.804
  -2.637        -12.804
  -2.635        -12.805
  -2.633        -12.805
  -2.631        -12.806
  -2.629        -12.806
  -2.626        -12.807
  -2.624        -12.807
  -2.622        -12.808
  -2.620        -12.808
  -2.618        -12.809
  -2.616        -12.810
  -2.614        -12.810
  -2.611        -12.811
  -2.609        -12.812
  -2.607        -12.813
  -2.605        -12.813
  -2.603        -12.815
  -2.600        -12.815
  -2.598        -12.816
  -2.596        -12.817
  -2.594        -12.818
  -2.592        -12.819
  -2.590        -12.820
  -2.587        -12.821
  -2.585        -12.823
  -2.583        -12.824
  -2.581        -12.825
  -2.579        -12.826
  -2.577        -12.827
  -2.574        -12.828
  -2.572        -12.830
  -2.570        -12.831
  -2.568        -12.833
  -2.566        -12.834
  -2.564        -12.836
  -2.561        -12.837
  -2.559        -12.839
  -2.557        -12.840
  -2.555        -12.842
  -2.553        -12.843
  -2.551        -12.845
  -2.548        -12.847
  -2.546        -12.849
  -2.544        -12.850
  -2.542        -12.852
  -2.540        -12.854
  -2.538        -12.856
  -2.535        -12.858
  -2.533        -12.860
  -2.531        -12.862
  -2.529        -12.864
  -2.527        -12.866
  -2.525        -12.868
  -2.522        -12.871
  -2.520        -12.873
  -2.518        -12.875
  -2.516        -12.877
  -2.514        -12.879
  -2.511        -12.882
  -2.509        -12.885
  -2.507        -12.887
  -2.505        -12.889
  -2.503        -12.892
  -2.501        -12.895
  -2.498        -12.897
  -2.496        -12.900
  -2.494        -12.903
  -2.492        -12.905
  -2.490        -12.908
  -2.488        -12.911
  -2.485        -12.914
  -2.483        -12.917
  -2.481        -12.920
  -2.479        -12.923
  -2.477        -12.926
  -2.475        -12.929
  -2.472        -12.932
  -2.470        -12.935
  -2.468        -12.939
  -2.466        -12.942
  -2.464        -12.945
  -2.462        -12.949
  -2.459        -12.952
  -2.457        -12.956
  -2.455        -12.959
  -2.453        -12.963
  -2.451        -12.966
  -2.448        -12.970
  -2.446        -12.974
  -2.444        -12.978
  -2.442        -12.981
  -2.440        -12.986
  -2.438        -12.989
  -2.435        -12.993
  -2.433        -12.997
  -2.431        -13.002
  -2.429        -13.006
  -2.427        -13.010
  -2.425        -13.014
  -2.422        -13.018
  -2.420        -13.023
  -2.418        -13.027
  -2.416        -13.032
  -2.414        -13.036
  -2.412        -13.041
  -2.409        -13.046
  -2.407        -13.050
  -2.405        -13.055
  -2.403        -13.059
  -2.401        -13.064
  -2.398        -13.069
  -2.396        -13.074
  -2.394        -13.079
  -2.392        -13.084
  -2.390        -13.089
  -2.388        -13.094
  -2.386        -13.100
  -2.383        -13.105
  -2.381        -13.110
  -2.379        -13.116
  -2.377        -13.121
  -2.375        -13.127
  -2.372        -13.132
  -2.370        -13.138
  -2.368        -13.144
  -2.366        -13.149
  -2.364        -13.155
  -2.362        -13.161
  -2.359        -13.167
  -2.357        -13.173
  -2.355        -13.179
  -2.353        -13.185
  -2.351        -13.191
  -2.349        -13.198
  -2.346        -13.204
  -2.344        -13.210
  -2.342        -13.217
  -2.340        -13.223
  -2.338        -13.230
  -2.336        -13.236
  -2.333        -13.243
  -2.331        -13.250
  -2.329        -13.257
  -2.327        -13.264
  -2.325        -13.271
  -2.323        -13.278
  -2.320        -13.285
  -2.318        -13.292
  -2.316        -13.299
  -2.314        -13.306
  -2.312        -13.314
  -2.309        -13.321
  -2.307        -13.329
  -2.305        -13.336
  -2.303        -13.344
  -2.301        -13.352
  -2.299        -13.359
  -2.297        -13.367
  -2.294        -13.375
  -2.292        -13.383
  -2.290        -13.391
  -2.288        -13.399
  -2.286        -13.408
  -2.283        -13.416
  -2.281        -13.424
  -2.279        -13.433
  -2.277        -13.441
  -2.275        -13.450
  -2.273        -13.458
  -2.270        -13.467
  -2.268        -13.476
  -2.266        -13.485
  -2.264        -13.494
  -2.262        -13.503
  -2.260        -13.512
  -2.257        -13.521
  -2.255        -13.530
  -2.253        -13.540
  -2.251        -13.549
  -2.249        -13.558
  -2.247        -13.568
  -2.244        -13.578
  -2.242        -13.588
  -2.240        -13.597
  -2.238        -13.607
  -2.236        -13.617
  -2.234        -13.627
  -2.231        -13.638
  -2.229        -13.648
  -2.227        -13.658
  -2.225        -13.669
  -2.223        -13.679
  -2.220        -13.690
  -2.218        -13.700
  -2.216        -13.711
  -2.214        -13.722
  -2.212        -13.733
  -2.210        -13.744
  -2.207        -13.755
  -2.205        -13.766
  -2.203        -13.777
  -2.201        -13.789
  -2.199        -13.800
  -2.197        -13.812
  -2.194        -13.823
  -2.192        -13.835
  -2.190        -13.847
  -2.188        -13.859
  -2.186        -13.871
  -2.184        -13.883
  -2.181        -13.895
  -2.179        -13.907
  -2.177        -13.920
  -2.175        -13.932
  -2.173        -13.945
  -2.171        -13.957
  -2.168        -13.970
  -2.166        -13.983
  -2.164        -13.996
  -2.162        -14.009
  -2.160        -14.022
  -2.158        -14.035
  -2.155        -14.049
  -2.153        -14.062
  -2.151        -14.076
  -2.149        -14.089
  -2.147        -14.103
  -2.145        -14.117
  -2.142        -14.131
  -2.140        -14.145
  -2.138        -14.159
  -2.136        -14.173
  -2.134        -14.188
  -2.131        -14.202
  -2.129        -14.217
  -2.127        -14.231
  -2.125        -14.246
  -2.123        -14.261
  -2.121        -14.276
  -2.118        -14.291
  -2.116        -14.306
  -2.114        -14.322
  -2.112        -14.337
  -2.110        -14.353
  -2.108        -14.368
  -2.105        -14.384
  -2.103        -14.400
  -2.101        -14.416
  -2.099        -14.432
  -2.097        -14.448
  -2.095        -14.464
  -2.092        -14.481
  -2.090        -14.497
  -2.088        -14.514
  -2.086        -14.531
  -2.084        -14.548
  -2.082        -14.565
  -2.079        -14.582
  -2.077        -14.599
  -2.075        -14.616
  -2.073        -14.634
  -2.071        -14.651
  -2.069        -14.669
  -2.066        -14.687
  -2.064        -14.705
  -2.062        -14.723
  -2.060        -14.741
  -2.058        -14.760
  -2.056        -14.778
  -2.053        -14.797
  -2.051        -14.816
  -2.049        -14.834
  -2.047        -14.853
  -2.045        -14.873
  -2.043        -14.892
  -2.040        -14.911
  -2.038        -14.930
  -2.036        -14.950
  -2.034        -14.970
  -2.032        -14.990
  -2.029        -15.010
  -2.027        -15.030
  -2.025        -15.050
  -2.023        -15.071
  -2.021        -15.091
  -2.019        -15.112
  -2.016        -15.133
  -2.014        -15.153
  -2.012        -15.175
  -2.010        -15.196
  -2.008        -15.217
  -2.006        -15.239
  -2.003        -15.260
  -2.001        -15.282
  -1.999        -15.304
  -1.997        -15.326
  -1.995        -15.348
  -1.993        -15.371
  -1.990        -15.393
  -1.988        -15.416
  -1.986        -15.439
  -1.984        -15.462
  -1.982        -15.485
  -1.980        -15.508
  -1.977        -15.531
  -1.975        -15.555
  -1.973        -15.578
  -1.971        -15.602
  -1.969        -15.626
  -1.967        -15.650
  -1.964        -15.675
  -1.962        -15.699
  -1.960        -15.724
  -1.958        -15.749
  -1.956        -15.773
  -1.953        -15.798
  -1.951        -15.824
  -1.949        -15.849
  -1.947        -15.875
  -1.945        -15.900
  -1.943        -15.926
  -1.940        -15.952
  -1.938        -15.978
  -1.936        -16.004
  -1.934        -16.031
  -1.932        -16.058
  -1.930        -16.084
  -1.927        -16.111
  -1.925        -16.139
  -1.923        -16.166
  -1.921        -16.193
  -1.919        -16.221
  -1.917        -16.249
  -1.914        -16.277
  -1.912        -16.305
  -1.910        -16.333
  -1.908        -16.362
  -1.906        -16.390
  -1.904        -16.419
  -1.901        -16.448
  -1.899        -16.477
  -1.897        -16.506
  -1.895        -16.536
  -1.893        -16.565
  -1.891        -16.595
  -1.888        -16.625
  -1.886        -16.655
  -1.884        -16.686
  -1.882        -16.716
  -1.880        -16.747
  -1.877        -16.778
  -1.875        -16.808
  -1.873        -16.839
  -1.871        -16.871
  -1.869        -16.902
  -1.867        -16.934
  -1.864        -16.965
  -1.862        -16.997
  -1.860        -17.030
  -1.858        -17.062
  -1.856        -17.094
  -1.853        -17.127
  -1.851        -17.159
  -1.849        -17.191
  -1.847        -17.225
  -1.845        -17.257
  -1.843        -17.290
  -1.841        -17.323
  -1.838        -17.357
  -1.836        -17.390
  -1.834        -17.423
  -1.832        -17.457
  -1.830        -17.490
  -1.828        -17.524
  -1.825        -17.558
  -1.823        -17.592
  -1.821        -17.625
  -1.819        -17.659
  -1.817        -17.692
  -1.815        -17.726
  -1.812        -17.759
  -1.810        -17.793
  -1.808        -17.826
  -1.806        -17.859
  -1.804        -17.892
  -1.801        -17.925
  -1.799        -17.957
  -1.797        -17.990
  -1.795        -18.021
  -1.793        -18.053
  -1.791        -18.084
  -1.788        -18.115
  -1.786        -18.145
  -1.784        -18.175
  -1.782        -18.205
  -1.780        -18.233
  -1.777        -18.262
  -1.775        -18.289
  -1.773        -18.316
  -1.771        -18.342
  -1.769        -18.367
  -1.767        -18.391
  -1.764        -18.415
  -1.763        -18.438
  -1.760        -18.460
  -1.758        -18.481
  -1.756        -18.501
  -1.754        -18.520
  -1.752        -18.538
  -1.749        -18.556
  -1.747        -18.572
  -1.745        -18.588
  -1.743        -18.602
  -1.741        -18.616
  -1.739        -18.628
  -1.736        -18.641
  -1.734        -18.652
  -1.732        -18.663
  -1.730        -18.673
  -1.728        -18.682
  -1.726        -18.690
  -1.723        -18.698
  -1.721        -18.705
  -1.719        -18.712
  -1.717        -18.718
  -1.715        -18.724
  -1.713        -18.729
  -1.710        -18.735
  -1.708        -18.739
  -1.706        -18.743
  -1.704        -18.747
  -1.702        -18.751
  -1.699        -18.754
  -1.697        -18.757
  -1.695        -18.760
  -1.693        -18.763
  -1.691        -18.765
  -1.689        -18.768
  -1.686        -18.770
  -1.684        -18.772
  -1.682        -18.774
  -1.680        -18.775
  -1.678        -18.777
  -1.675        -18.779
  -1.673        -18.780
  -1.671        -18.782
  -1.669        -18.783
  -1.667        -18.785
  -1.665        -18.786
  -1.663        -18.787
  -1.660        -18.788
  -1.658        -18.789
  -1.656        -18.791
  -1.654        -18.792
  -1.652        -18.793
  -1.650        -18.794
  -1.647        -18.795
  -1.645        -18.796
  -1.643        -18.797
  -1.641        -18.798
  -1.639        -18.799
  -1.637        -18.800
  -1.634        -18.801
  -1.632        -18.801
  -1.630        -18.802
  -1.628        -18.803
  -1.626        -18.804
  -1.623        -18.805
  -1.621        -18.806
  -1.619        -18.807
  -1.617        -18.808
  -1.615        -18.809
  -1.613        -18.809
  -1.611        -18.810
  -1.608        -18.811
  -1.606        -18.812
  -1.604        -18.813
  -1.602        -18.814
  -1.600        -18.815
  -1.597        -18.816
  -1.595        -18.816
  -1.593        -18.817
  -1.591        -18.818
  -1.589        -18.819
  -1.587        -18.820
  -1.584        -18.821
  -1.582        -18.822
  -1.580        -18.822
  -1.578        -18.823
  -1.576        -18.824
  -1.573        -18.825
  -1.571        -18.826
  -1.569        -18.826
  -1.567        -18.827
  -1.565        -18.828
  -1.563        -18.829
  -1.561        -18.830
  -1.558        -18.831
  -1.556        -18.832
  -1.554        -18.832
  -1.552        -18.833
  -1.550        -18.834
  -1.547        -18.835
  -1.545        -18.836
  -1.543        -18.837
  -1.541        -18.838
  -1.539        -18.838
  -1.537        -18.839
  -1.534        -18.840
  -1.532        -18.841
  -1.530        -18.842
  -1.528        -18.842
  -1.526        -18.843
  -1.524        -18.844
  -1.522        -18.845
  -1.519        -18.846
  -1.517        -18.847
  -1.515        -18.847
  -1.513        -18.848
  -1.511        -18.849
  -1.508        -18.850
  -1.506        -18.851
  -1.504        -18.852
  -1.502        -18.852
  -1.500        -18.853
  -1.498        -18.854
  -1.495        -18.855
  -1.493        -18.856
  -1.491        -18.856
  -1.489        -18.857
  -1.487        -18.858
  -1.484        -18.859
  -1.482        -18.860
  -1.480        -18.861
  -1.478        -18.862
  -1.476        -18.863
  -1.474        -18.863
  -1.472        -18.864
  -1.469        -18.865
  -1.467        -18.866
  -1.465        -18.867
  -1.463        -18.868
  -1.461        -18.868
  -1.458        -18.869
  -1.456        -18.870
  -1.454        -18.871
  -1.452        -18.872
  -1.450        -18.872
  -1.448        -18.873
  -1.445        -18.874
  -1.443        -18.875
  -1.441        -18.876
  -1.439        -18.877
  -1.437        -18.877
  -1.435        -18.878
  -1.432        -18.879
  -1.430        -18.880
  -1.428        -18.881
  -1.426        -18.882
  -1.424        -18.882
  -1.422        -18.883
  -1.419        -18.884
  -1.417        -18.885
  -1.415        -18.886
  -1.413        -18.887
  -1.411        -18.887
  -1.409        -18.888
  -1.406        -18.889
  -1.404        -18.890
  -1.402        -18.891
  -1.400        -18.891
  -1.398        -18.892
  -1.396        -18.893
  -1.393        -18.894
  -1.391        -18.895
  -1.389        -18.896
  -1.387        -18.896
  -1.385        -18.897
  -1.383        -18.898
  -1.380        -18.899
  -1.378        -18.900
  -1.376        -18.901
  -1.374        -18.902
  -1.372        -18.902
  -1.370        -18.903
  -1.367        -18.904
  -1.365        -18.905
  -1.363        -18.906
  -1.361        -18.907
  -1.359        -18.907
  -1.356        -18.908
  -1.354        -18.909
  -1.352        -18.910
  -1.350        -18.911
  -1.348        -18.911
  -1.346        -18.912
  -1.343        -18.913
  -1.341        -18.914
  -1.339        -18.915
  -1.337        -18.916
  -1.335        -18.916
  -1.333        -18.917
  -1.330        -18.918
  -1.328        -18.919
  -1.326        -18.920
  -1.324        -18.920
  -1.322        -18.921
  -1.320        -18.922
  -1.317        -18.923
  -1.315        -18.924
  -1.313        -18.925
  -1.311        -18.926
  -1.309        -18.926
  -1.307        -18.927
  -1.304        -18.928
  -1.302        -18.929
  -1.300        -18.930
  -1.298        -18.931
  -1.296        -18.931
  -1.293        -18.932
  -1.291        -18.933
  -1.289        -18.934
  -1.287        -18.935
  -1.285        -18.936
  -1.283        -18.937
  -1.280        -18.937
  -1.278        -18.938
  -1.276        -18.939
  -1.274        -18.940
  -1.272        -18.941
  -1.270        -18.942
  -1.267        -18.943
  -1.265        -18.943
  -1.263        -18.944
  -1.261        -18.945
  -1.259        -18.946
  -1.257        -18.947
  -1.254        -18.948
  -1.252        -18.949
  -1.250        -18.950
  -1.248        -18.950
  -1.246        -18.951
  -1.243        -18.952
  -1.241        -18.953
  -1.239        -18.954
  -1.237        -18.955
  -1.235        -18.956
  -1.233        -18.957
  -1.231        -18.958
  -1.228        -18.959
  -1.226        -18.959
  -1.224        -18.960
  -1.222        -18.961
  -1.220        -18.962
  -1.217        -18.963
  -1.215        -18.964
  -1.213        -18.965
  -1.211        -18.966
  -1.209        -18.967
  -1.207        -18.967
  -1.204        -18.968
  -1.202        -18.969
  -1.200        -18.970
  -1.198        -18.971
  -1.196        -18.972
  -1.194        -18.973
  -1.191        -18.974
  -1.189        -18.975
  -1.187        -18.976
  -1.185        -18.977
  -1.183        -18.978
  -1.181        -18.979
  -1.178        -18.980
  -1.176        -18.981
  -1.174        -18.982
  -1.172        -18.983
  -1.170        -18.984
  -1.168        -18.985
  -1.165        -18.986
  -1.163        -18.987
  -1.161        -18.988
  -1.159        -18.989
  -1.157        -18.990
  -1.155        -18.991
  -1.152        -18.992
  -1.150        -18.993
  -1.148        -18.995
  -1.146        -18.996
  -1.144        -18.997
  -1.142        -18.998
  -1.139        -18.999
  -1.137        -19.000
  -1.135        -19.001
  -1.133        -19.002
  -1.131        -19.004
  -1.129        -19.005
  -1.126        -19.006
  -1.124        -19.007
  -1.122        -19.008
  -1.120        -19.009
  -1.118        -19.011
  -1.115        -19.012
  -1.113        -19.013
  -1.111        -19.014
  -1.109        -19.016
  -1.107        -19.017
  -1.105        -19.018
  -1.102        -19.019
  -1.100        -19.021
  -1.098        -19.022
  -1.096        -19.023
  -1.094        -19.025
  -1.092        -19.026
  -1.089        -19.027
  -1.087        -19.029
  -1.085        -19.030
  -1.083        -19.032
  -1.081        -19.033
  -1.079        -19.035
  -1.076        -19.036
  -1.074        -19.037
  -1.072        -19.039
  -1.070        -19.040
  -1.068        -19.042
  -1.066        -19.043
  -1.063        -19.045
  -1.061        -19.047
  -1.059        -19.048
  -1.057        -19.050
  -1.055        -19.051
  -1.052        -19.053
  -1.050        -19.055
  -1.048        -19.056
  -1.046        -19.058
  -1.044        -19.060
  -1.042        -19.062
  -1.039        -19.064
  -1.037        -19.065
  -1.035        -19.067
  -1.033        -19.069
  -1.031        -19.071
  -1.029        -19.073
  -1.026        -19.075
  -1.024        -19.077
  -1.022        -19.079
  -1.020        -19.081
  -1.018        -19.083
  -1.016        -19.085
  -1.013        -19.087
  -1.011        -19.089
  -1.009        -19.091
  -1.007        -19.093
  -1.005        -19.095
  -1.003        -19.097
  -1.000        -19.099
  -0.998        -19.101
  -0.996        -19.104
  -0.994        -19.106
  -0.992        -19.108
  -0.990        -19.110
  -0.987        -19.112
  -0.985        -19.114
  -0.983        -19.116
  -0.981        -19.118
  -0.979        -19.120
  -0.977        -19.122
  -0.974        -19.124
  -0.972        -19.127
  -0.970        -19.129
  -0.968        -19.131
  -0.966        -19.133
  -0.963        -19.135
  -0.961        -19.137
  -0.959        -19.139
  -0.957        -19.141
  -0.955        -19.143
  -0.953        -19.145
  -0.950        -19.147
  -0.948        -19.149
  -0.946        -19.150
  -0.944        -19.152
  -0.942        -19.154
  -0.940        -19.156
  -0.937        -19.158
  -0.935        -19.160
  -0.933        -19.162
  -0.931        -19.163
  -0.929        -19.165
  -0.927        -19.167
  -0.924        -19.169
  -0.922        -19.171
  -0.920        -19.172
  -0.918        -19.174
  -0.916        -19.176
  -0.914        -19.177
  -0.911        -19.179
  -0.909        -19.181
  -0.907        -19.183
  -0.905        -19.184
  -0.903        -19.186
  -0.900        -19.188
  -0.898        -19.189
  -0.896        -19.191
  -0.894        -19.192
  -0.892        -19.194
  -0.890        -19.195
  -0.887        -19.197
  -0.885        -19.199
  -0.883        -19.200
  -0.881        -19.202
  -0.879        -19.203
  -0.877        -19.204
  -0.874        -19.206
  -0.872        -19.207
  -0.870        -19.209
  -0.868        -19.211
  -0.866        -19.212
  -0.864        -19.213
  -0.862        -19.214
  -0.859        -19.216
  -0.857        -19.217
  -0.855        -19.218
  -0.853        -19.220
  -0.851        -19.221
  -0.848        -19.223
  -0.846        -19.224
  -0.844        -19.225
  -0.842        -19.226
  -0.840        -19.228
  -0.838        -19.229
  -0.835        -19.230
  -0.833        -19.231
  -0.831        -19.232
  -0.829        -19.234
  -0.827        -19.235
  -0.825        -19.236
  -0.822        -19.237
  -0.820        -19.238
  -0.818        -19.239
  -0.816        -19.240
  -0.814        -19.241
  -0.812        -19.242
  -0.809        -19.243
  -0.807        -19.244
  -0.805        -19.245
  -0.803        -19.246
  -0.801        -19.247
  -0.799        -19.248
  -0.796        -19.249
  -0.794        -19.249
  -0.792        -19.250
  -0.790        -19.251
  -0.788        -19.252
  -0.785        -19.253
  -0.783        -19.253
  -0.781        -19.254
  -0.779        -19.255
  -0.777        -19.255
  -0.774        -19.256
  -0.772        -19.256
  -0.770        -19.257
  -0.768        -19.258
  -0.766        -19.258
  -0.764        -19.259
  -0.762        -19.259
  -0.759        -19.260
  -0.757        -19.260
  -0.755        -19.260
  -0.753        -19.261
  -0.751        -19.261
  -0.748        -19.262
  -0.746        -19.262
  -0.744        -19.262
  -0.742        -19.262
  -0.740        -19.263
  -0.738        -19.263
  -0.736        -19.263
  -0.733        -19.263
  -0.731        -19.263
  -0.729        -19.263
  -0.727        -19.264
  -0.725        -19.264
  -0.723        -19.264
  -0.720        -19.264
  -0.718        -19.264
  -0.716        -19.264
  -0.714        -19.264
  -0.712        -19.264
  -0.709        -19.264
  -0.707        -19.263
  -0.705        -19.263
  -0.703        -19.263
  -0.701        -19.263
  -0.699        -19.263
  -0.697        -19.263
  -0.694        -19.262
  -0.692        -19.262
  -0.690        -19.262
  -0.688        -19.261
  -0.685        -19.261
  -0.683        -19.261
  -0.681        -19.261
  -0.679        -19.260
  -0.677        -19.260
  -0.675        -19.259
  -0.673        -19.259
  -0.670        -19.258
  -0.668        -19.257
  -0.666        -19.257
  -0.664        -19.256
  -0.662        -19.256
  -0.659        -19.255
  -0.657        -19.255
  -0.655        -19.254
  -0.653        -19.253
  -0.651        -19.253
  -0.649        -19.252
  -0.647        -19.251
  -0.644        -19.250
  -0.642        -19.249
  -0.640        -19.248
  -0.638        -19.248
  -0.636        -19.247
  -0.633        -19.246
  -0.631        -19.245
  -0.629        -19.244
  -0.627        -19.243
  -0.625        -19.242
  -0.623        -19.241
  -0.621        -19.240
  -0.618        -19.239
  -0.616        -19.238
  -0.614        -19.237
  -0.612        -19.236
  -0.610        -19.235
  -0.608        -19.234
  -0.605        -19.233
  -0.603        -19.232
  -0.601        -19.231
  -0.599        -19.230
  -0.596        -19.229
  -0.594        -19.228
  -0.592        -19.226
  -0.590        -19.225
  -0.588        -19.224
  -0.586        -19.223
  -0.584        -19.222
  -0.581        -19.221
  -0.579        -19.220
  -0.577        -19.218
  -0.575        -19.217
  -0.573        -19.216
  -0.571        -19.215
  -0.568        -19.214
  -0.566        -19.213
  -0.564        -19.211
  -0.562        -19.210
  -0.560        -19.209
  -0.557        -19.208
  -0.555        -19.207
  -0.553        -19.206
  -0.551        -19.205
  -0.549        -19.204
  -0.547        -19.202
  -0.544        -19.201
  -0.542        -19.200
  -0.540        -19.199
  -0.538        -19.198
  -0.536        -19.197
  -0.534        -19.196
  -0.531        -19.195
  -0.529        -19.193
  -0.527        -19.192
  -0.525        -19.191
  -0.523        -19.190
  -0.521        -19.189
  -0.518        -19.187
  -0.516        -19.186
  -0.514        -19.185
  -0.512        -19.184
  -0.510        -19.183
  -0.507        -19.182
  -0.505        -19.180
  -0.503        -19.179
  -0.501        -19.178
  -0.499        -19.177
  -0.497        -19.176
  -0.495        -19.174
  -0.492        -19.173
  -0.490        -19.172
  -0.488        -19.171
  -0.486        -19.169
  -0.484        -19.168
  -0.482        -19.167
  -0.479        -19.166
  -0.477        -19.165
  -0.475        -19.163
  -0.473        -19.162
  -0.471        -19.161
  -0.468        -19.160
  -0.466        -19.159
  -0.464        -19.157
  -0.462        -19.156
  -0.460        -19.155
  -0.458        -19.154
  -0.455        -19.152
  -0.453        -19.151
  -0.451        -19.150
  -0.449        -19.149
  -0.447        -19.148
  -0.445        -19.146
  -0.442        -19.145
  -0.440        -19.144
  -0.438        -19.143
  -0.436        -19.141
  -0.434        -19.140
  -0.432        -19.139
  -0.429        -19.138
  -0.427        -19.136
  -0.425        -19.135
  -0.423        -19.134
  -0.421        -19.133
  -0.419        -19.131
  -0.416        -19.130
  -0.414        -19.129
  -0.412        -19.128
  -0.410        -19.127
  -0.408        -19.125
  -0.405        -19.124
  -0.403        -19.123
  -0.401        -19.122
  -0.399        -19.120
  -0.397        -19.119
  -0.395        -19.118
  -0.392        -19.117
  -0.390        -19.116
  -0.388        -19.114
  -0.386        -19.113
  -0.384        -19.112
  -0.382        -19.111
  -0.379        -19.110
  -0.377        -19.108
  -0.375        -19.107
  -0.373        -19.106
  -0.371        -19.105
  -0.369        -19.103
  -0.366        -19.102
  -0.364        -19.101
  -0.362        -19.099
  -0.360        -19.098
  -0.358        -19.097
  -0.356        -19.096
  -0.353        -19.095
  -0.351        -19.093
  -0.349        -19.092
  -0.347        -19.091
  -0.345        -19.089
  -0.343        -19.088
  -0.340        -19.087
  -0.338        -19.086
  -0.336        -19.084
  -0.334        -19.083
  -0.332        -19.082
  -0.330        -19.081
  -0.327        -19.079
  -0.325        -19.078
  -0.323        -19.076
  -0.321        -19.076
  -0.319        -19.074
  -0.316        -19.073
  -0.314        -19.072
  -0.312        -19.071
  -0.310        -19.070
  -0.308        -19.068
  -0.306        -19.067
  -0.303        -19.066
  -0.301        -19.065
  -0.299        -19.064
  -0.297        -19.063
  -0.295        -19.062
  -0.293        -19.061
  -0.290        -19.061
  -0.288        -19.060
  -0.286        -19.059
  -0.284        -19.058
  -0.282        -19.057
  -0.280        -19.056
  -0.277        -19.056
  -0.275        -19.055
  -0.273        -19.055
  -0.271        -19.054
  -0.269        -19.053
  -0.267        -19.053
  -0.264        -19.052
  -0.262        -19.051
  -0.260        -19.051
  -0.258        -19.050
  -0.256        -19.049
  -0.253        -19.049
  -0.251        -19.049
  -0.249        -19.048
  -0.247        -19.048
  -0.245        -19.047
  -0.243        -19.046
  -0.241        -19.046
  -0.238        -19.045
  -0.236        -19.045
  -0.234        -19.045
  -0.232        -19.044
  -0.230        -19.044
  -0.227        -19.044
  -0.225        -19.043
  -0.223        -19.043
  -0.221        -19.042
  -0.219        -19.042
  -0.217        -19.041
  -0.214        -19.041
  -0.212        -19.041
  -0.210        -19.041
  -0.208        -19.041
  -0.206        -19.040
  -0.204        -19.040
  -0.201        -19.040
  -0.199        -19.040
  -0.197        -19.040
  -0.195        -19.040
  -0.193        -19.039
  -0.191        -19.039
  -0.188        -19.039
  -0.186        -19.039
  -0.184        -19.039
  -0.182        -19.039
  -0.180        -19.039
  -0.178        -19.039
  -0.175        -19.039
  -0.173        -19.039
  -0.171        -19.040
  -0.169        -19.040
  -0.167        -19.040
  -0.164        -19.040
  -0.162        -19.040
  -0.160        -19.040
  -0.158        -19.040
  -0.156        -19.041
  -0.154        -19.041
  -0.151        -19.042
  -0.149        -19.042
  -0.147        -19.042
  -0.145        -19.043
  -0.143        -19.043
  -0.141        -19.043
  -0.138        -19.044
  -0.136        -19.044
  -0.134        -19.044
  -0.132        -19.045
  -0.130        -19.045
  -0.128        -19.045
  -0.125        -19.046
  -0.123        -19.046
  -0.121        -19.046
  -0.119        -19.047
  -0.117        -19.047
  -0.115        -19.047
  -0.112        -19.048
  -0.110        -19.048
  -0.108        -19.048
  -0.106        -19.049
  -0.104        -19.049
  -0.102        -19.049
  -0.099        -19.049
  -0.097        -19.050
  -0.095        -19.050
  -0.093        -19.050
  -0.091        -19.050
  -0.089        -19.050
  -0.086        -19.050
  -0.084        -19.051
  -0.082        -19.051
  -0.080        -19.051
  -0.078        -19.051
  -0.075        -19.051
  -0.073        -19.051
  -0.071        -19.051
  -0.069        -19.051
  -0.067        -19.051
  -0.065        -19.051
  -0.063        -19.051
  -0.060        -19.051
  -0.058        -19.052
  -0.056        -19.052
  -0.054        -19.052
  -0.052        -19.052
  -0.049        -19.052
  -0.047        -19.052
  -0.045        -19.052
  -0.043        -19.052
  -0.041        -19.052
  -0.039        -19.052
  -0.036        -19.052
  -0.034        -19.053
  -0.032        -19.053
  -0.030        -19.053
  -0.028        -19.053
  -0.026        -19.053
  -0.023        -19.053
  -0.021        -19.053
  -0.019        -19.053
  -0.017        -19.053
  -0.015        -19.053
  -0.013        -19.053
  -0.010        -19.054
  -0.008        -19.054
  -0.006        -19.054
  -0.004        -19.054
  -0.002        -19.054
   0.000        -19.055
   0.003        -19.055
   0.005        -19.055
   0.007        -19.055
   0.009        -19.055
   0.011        -19.056
   0.013        -19.056
   0.016        -19.056
   0.018        -19.057
   0.020        -19.057
   0.022        -19.057
   0.024        -19.058
   0.027        -19.058
   0.029        -19.058
   0.031        -19.059
   0.033        -19.059
   0.035        -19.060
   0.037        -19.060
   0.040        -19.060
   0.042        -19.061
   0.044        -19.061
   0.046        -19.062
   0.048        -19.062
   0.050        -19.063
   0.053        -19.063
   0.055        -19.064
   0.057        -19.064
   0.059        -19.065
   0.061        -19.065
   0.063        -19.066
   0.066        -19.066
   0.068        -19.066
   0.070        -19.067
   0.072        -19.067
   0.074        -19.068
   0.076        -19.068
   0.079        -19.068
   0.081        -19.069
   0.083        -19.069
   0.085        -19.069
   0.087        -19.070
   0.089        -19.070
   0.092        -19.071
   0.094        -19.071
   0.096        -19.071
   0.098        -19.072
   0.100        -19.072
   0.103        -19.072
   0.105        -19.073
   0.107        -19.073
   0.109        -19.074
   0.111        -19.074
   0.113        -19.075
   0.116        -19.075
   0.118        -19.076
   0.120        -19.076
   0.122        -19.077
   0.124        -19.077
   0.126        -19.077
   0.128        -19.078
   0.131        -19.078
   0.133        -19.079
   0.135        -19.079
   0.137        -19.080
   0.139        -19.080
   0.142        -19.081
   0.144        -19.081
   0.146        -19.081
   0.148        -19.082
   0.150        -19.082
   0.153        -19.083
   0.155        -19.083
   0.157        -19.084
   0.159        -19.084
   0.161        -19.084
   0.163        -19.084
   0.165        -19.085
   0.168        -19.086
   0.170        -19.086
   0.172        -19.086
   0.174        -19.087
   0.176        -19.087
   0.178        -19.088
   0.181        -19.088
   0.183        -19.089
   0.185        -19.089
   0.187        -19.090
   0.189        -19.090
   0.192        -19.091
   0.194        -19.091
   0.196        -19.092
   0.198        -19.092
   0.200        -19.092
   0.202        -19.093
   0.205        -19.093
   0.207        -19.094
   0.209        -19.094
   0.211        -19.095
   0.213        -19.095
   0.215        -19.096
   0.218        -19.096
   0.220        -19.097
   0.222        -19.097
   0.224        -19.098
   0.226        -19.098
   0.229        -19.099
   0.231        -19.099
   0.233        -19.100
   0.235        -19.100
   0.237        -19.101
   0.239        -19.101
   0.241        -19.102
   0.244        -19.102
   0.246        -19.103
   0.248        -19.104
   0.250        -19.104
   0.252        -19.105
   0.254        -19.105
   0.257        -19.106
   0.259        -19.107
   0.261        -19.107
   0.263        -19.108
   0.265        -19.108
   0.267        -19.109
   0.270        -19.109
   0.272        -19.110
   0.274        -19.111
   0.276        -19.112
   0.278        -19.112
   0.281        -19.113
   0.283        -19.114
   0.285        -19.114
   0.287        -19.115
   0.289        -19.116
   0.291        -19.117
   0.293        -19.117
   0.296        -19.118
   0.298        -19.118
   0.300        -19.119
   0.302        -19.120
   0.305        -19.121
   0.307        -19.122
   0.309        -19.122
   0.311        -19.123
   0.313        -19.124
   0.315        -19.125
   0.318        -19.126
   0.320        -19.127
   0.322        -19.127
   0.324        -19.128
   0.326        -19.129
   0.328        -19.130
   0.330        -19.131
   0.333        -19.132
   0.335        -19.133
   0.337        -19.133
   0.339        -19.135
   0.341        -19.135
   0.344        -19.136
   0.346        -19.137
   0.348        -19.138
   0.350        -19.139
   0.352        -19.140
   0.354        -19.141
   0.356        -19.142
   0.359        -19.143
   0.361        -19.144
   0.363        -19.145
   0.365        -19.146
   0.367        -19.147
   0.369        -19.148
   0.372        -19.149
   0.374        -19.150
   0.376        -19.151
   0.378        -19.152
   0.380        -19.153
   0.383        -19.154
   0.385        -19.155
   0.387        -19.156
   0.389        -19.157
   0.391        -19.158
   0.393        -19.159
   0.396        -19.161
   0.398        -19.162
   0.400        -19.163
   0.402        -19.164
   0.404        -19.165
   0.406        -19.167
   0.409        -19.168
   0.411        -19.170
   0.413        -19.171
   0.415        -19.172
   0.417        -19.174
   0.420        -19.175
   0.422        -19.177
   0.424        -19.178
   0.426        -19.180
   0.428        -19.181
   0.430        -19.183
   0.432        -19.184
   0.435        -19.186
   0.437        -19.188
   0.439        -19.189
   0.441        -19.191
   0.443        -19.192
   0.446        -19.194
   0.448        -19.196
   0.450        -19.197
   0.452        -19.199
   0.454        -19.201
   0.456        -19.203
   0.459        -19.205
   0.461        -19.207
   0.463        -19.209
   0.465        -19.211
   0.467        -19.212
   0.469        -19.214
   0.472        -19.216
   0.474        -19.218
   0.476        -19.220
   0.478        -19.221
   0.480        -19.223
   0.482        -19.225
   0.485        -19.227
   0.487        -19.229
   0.489        -19.230
   0.491        -19.231
   0.493        -19.232
   0.495        -19.232
   0.498        -19.233
   0.500        -19.233
   0.502        -19.234
   0.504        -19.235
   0.506        -19.235
   0.510        -19.236
   0.512        -19.236
   0.513        -19.236
   0.515        -19.235
   0.517        -19.235
   0.519        -19.234
   0.522        -19.234
   0.524        -19.234
   0.526        -19.233
   0.528        -19.233
   0.530        -19.232
   0.532        -19.232
   0.535        -19.231
   0.537        -19.231
   0.539        -19.230
   0.541        -19.230
   0.543        -19.229
   0.545        -19.229
   0.548        -19.228
   0.550        -19.228
   0.552        -19.227
   0.554        -19.227
   0.556        -19.227
   0.558        -19.226
   0.561        -19.226
   0.563        -19.225
   0.565        -19.225
   0.567        -19.224
   0.569        -19.224
   0.572        -19.223
   0.574        -19.223
   0.576        -19.222
   0.578        -19.222
   0.580        -19.222
   0.582        -19.221
   0.585        -19.221
   0.587        -19.221
   0.589        -19.220
   0.591        -19.220
   0.593        -19.219
   0.595        -19.219
   0.598        -19.219
   0.600        -19.219
   0.602        -19.219
   0.604        -19.219
   0.606        -19.219
   0.608        -19.219
   0.611        -19.219
   0.613        -19.219
   0.615        -19.219
   0.617        -19.219
   0.619        -19.219
   0.621        -19.220
   0.624        -19.220
   0.626        -19.220
   0.628        -19.220
   0.630        -19.221
   0.632        -19.221
   0.634        -19.221
   0.637        -19.222
   0.639        -19.222
   0.641        -19.222
   0.643        -19.223
   0.645        -19.223
   0.647        -19.223
   0.650        -19.224
   0.652        -19.224
   0.654        -19.225
   0.656        -19.225
   0.658        -19.225
   0.660        -19.226
   0.663        -19.226
   0.665        -19.226
   0.667        -19.227
   0.669        -19.227
   0.671        -19.228
   0.673        -19.228
   0.676        -19.229
   0.678        -19.229
   0.680        -19.230
   0.682        -19.230
   0.684        -19.231
   0.687        -19.231
   0.689        -19.232
   0.691        -19.232
   0.693        -19.233
   0.695        -19.233
   0.697        -19.233
   0.700        -19.234
   0.702        -19.235
   0.704        -19.236
   0.706        -19.237
   0.708        -19.237
   0.710        -19.238
   0.713        -19.239
   0.715        -19.239
   0.717        -19.240
   0.719        -19.241
   0.721        -19.242
   0.723        -19.243
   0.726        -19.244
   0.728        -19.245
   0.730        -19.246
   0.732        -19.247
   0.734        -19.248
   0.736        -19.249
   0.739        -19.250
   0.741        -19.251
   0.743        -19.252
   0.745        -19.253
   0.747        -19.254
   0.750        -19.255
   0.752        -19.256
   0.754        -19.257
   0.756        -19.258
   0.758        -19.260
   0.760        -19.261
   0.762        -19.262
   0.765        -19.263
   0.767        -19.264
   0.769        -19.266
   0.771        -19.267
   0.773        -19.268
   0.776        -19.269
   0.778        -19.271
   0.780        -19.272
   0.782        -19.273
   0.784        -19.275
   0.786        -19.276
   0.789        -19.278
   0.791        -19.280
   0.793        -19.281
   0.795        -19.283
   0.797        -19.284
   0.799        -19.286
   0.802        -19.288
   0.804        -19.290
   0.806        -19.292
   0.808        -19.294
   0.810        -19.295
   0.812        -19.297
   0.815        -19.299
   0.817        -19.301
   0.819        -19.303
   0.821        -19.305
   0.823        -19.307
   0.825        -19.310
   0.828        -19.312
   0.830        -19.314
   0.832        -19.316
   0.834        -19.319
   0.836        -19.321
   0.838        -19.323
   0.841        -19.325
   0.843        -19.327
   0.845        -19.330
   0.847        -19.332
   0.849        -19.335
   0.852        -19.337
   0.854        -19.340
   0.856        -19.342
   0.858        -19.345
   0.860        -19.347
   0.862        -19.350
   0.865        -19.352
   0.867        -19.355
   0.869        -19.357
   0.871        -19.360
   0.873        -19.363
   0.875        -19.365
   0.878        -19.368
   0.880        -19.371
   0.882        -19.373
   0.884        -19.376
   0.886        -19.379
   0.888        -19.382
   0.891        -19.385
   0.893        -19.389
   0.895        -19.392
   0.897        -19.395
   0.899        -19.398
   0.901        -19.402
   0.904        -19.405
   0.906        -19.408
   0.908        -19.412
   0.910        -19.416
   0.912        -19.420
   0.915        -19.424
   0.917        -19.428
   0.919        -19.432
   0.921        -19.436
   0.923        -19.440
   0.925        -19.443
   0.928        -19.448
   0.930        -19.453
   0.932        -19.458
   0.934        -19.462
   0.936        -19.467
   0.938        -19.472
   0.941        -19.477
   0.943        -19.481
   0.945        -19.486
   0.947        -19.491
   0.949        -19.498
   0.951        -19.504
   0.954        -19.511
   0.956        -19.517
   0.958        -19.524
   0.960        -19.530
   0.962        -19.537
   0.964        -19.543
   0.967        -19.550
   0.969        -19.556
   0.971        -19.561
   0.973        -19.566
   0.975        -19.571
   0.977        -19.576
   0.980        -19.581
   0.982        -19.586
   0.984        -19.591
   0.986        -19.596
   0.988        -19.605
   0.990        -19.614
   0.993        -19.620
   0.995        -19.626
   0.997        -19.632
   0.999        -19.638
   1.001        -19.644
   1.004        -19.650
   1.006        -19.655
   1.008        -19.661
   1.010        -19.669
   1.012        -19.680
   1.014        -19.691
   1.017        -19.702
   1.019        -19.714
   1.021        -19.725
   1.023        -19.736
   1.025        -19.748
   1.027        -19.759
   1.030        -19.770
   1.032        -19.785
   1.034        -19.802
   1.036        -19.818
   1.038        -19.834
   1.040        -19.851
   1.043        -19.867
   1.045        -19.884
   1.047        -19.900
   1.049        -19.916
   1.051        -19.934
   1.053        -19.960
   1.056        -19.986
   1.058        -20.012
   1.060        -20.039
   1.062        -20.065
   1.064        -20.091
   1.066        -20.118
   1.069        -20.144
   1.071        -20.170
   1.073        -20.211
   1.075        -20.267
   1.077        -20.322
   1.079        -20.377
   1.082        -20.432
   1.084        -20.488
   1.086        -20.543
   1.088        -20.598
   1.090        -20.653
   1.093        -20.709
   1.095        -20.767
   1.097        -20.827
   1.099        -20.886
   1.101        -20.945
   1.103        -21.004
   1.106        -21.064
   1.108        -21.123
   1.110        -21.182
   1.112        -21.249
   1.114        -21.285
   1.117        -21.288
   1.119        -21.292
   1.121        -21.295
   1.123        -21.298
   1.125        -21.301
   1.127        -21.304
   1.129        -21.307
   1.131        -21.311
   1.134        -21.314
   1.136        -21.317
   1.138        -21.320
   1.140        -21.323
   1.143        -21.326
   1.145        -21.328
   1.147        -21.332
   1.149        -21.334
   1.151        -21.337
   1.153        -21.340
   1.155        -21.343
   1.158        -21.345
   1.160        -21.348
   1.162        -21.351
   1.164        -21.354
   1.166        -21.356
   1.169        -21.359
   1.171        -21.362
   1.173        -21.364
   1.175        -21.367
   1.177        -21.370
   1.180        -21.372
   1.181        -21.375
   1.184        -21.378
   1.186        -21.380
   1.188        -21.383
   1.190        -21.386
   1.192        -21.388
   1.195        -21.391
   1.197        -21.394
   1.199        -21.396
   1.201        -21.399
   1.203        -21.402
   1.205        -21.404
   1.208        -21.407
   1.210        -21.410
   1.212        -21.412
   1.214        -21.415
   1.216        -21.418
   1.218        -21.420
   1.220        -21.423
   1.223        -21.425
   1.225        -21.428
   1.227        -21.430
   1.229        -21.433
   1.232        -21.436
   1.234        -21.438
   1.236        -21.441
   1.238        -21.443
   1.240        -21.446
   1.242        -21.448
   1.245        -21.451
   1.247        -21.453
   1.249        -21.455
   1.251        -21.458
   1.253        -21.460
   1.255        -21.463
   1.258        -21.465
   1.260        -21.468
   1.262        -21.470
   1.264        -21.473
   1.266        -21.476
   1.268        -21.478
   1.270        -21.481
   1.273        -21.484
   1.275        -21.487
   1.277        -21.489
   1.279        -21.492
   1.281        -21.495
   1.284        -21.498
   1.286        -21.501
   1.288        -21.504
   1.290        -21.507
   1.292        -21.510
   1.294        -21.513
   1.297        -21.516
   1.299        -21.519
   1.301        -21.522
   1.303        -21.525
   1.305        -21.529
   1.307        -21.532
   1.310        -21.535
   1.312        -21.538
   1.314        -21.542
   1.316        -21.545
   1.318        -21.548
   1.320        -21.552
   1.323        -21.555
   1.325        -21.558
   1.327        -21.562
   1.329        -21.565
   1.331        -21.569
   1.334        -21.572
   1.336        -21.576
   1.338        -21.579
   1.340        -21.583
   1.342        -21.586
   1.344        -21.590
   1.346        -21.594
   1.349        -21.598
   1.351        -21.602
   1.353        -21.606
   1.355        -21.610
   1.357        -21.614
   1.359        -21.617
   1.362        -21.621
   1.364        -21.625
   1.366        -21.628
   1.368        -21.632
   1.370        -21.635
   1.373        -21.639
   1.375        -21.643
   1.377        -21.646
   1.379        -21.649
   1.381        -21.653
   1.383        -21.656
   1.386        -21.659
   1.388        -21.662
   1.390        -21.664
   1.392        -21.666
   1.394        -21.669
   1.397        -21.672
   1.399        -21.674
   1.401        -21.676
   1.403        -21.679
   1.405        -21.681
   1.407        -21.684
   1.410        -21.687
   1.412        -21.689
   1.414        -21.692
   1.416        -21.695
   1.418        -21.697
   1.420        -21.700
   1.423        -21.702
   1.425        -21.705
   1.427        -21.707
   1.429        -21.710
   1.431        -21.712
   1.433        -21.715
   1.436        -21.717
   1.438        -21.720
   1.440        -21.722
   1.442        -21.725
   1.444        -21.727
   1.446        -21.729
   1.449        -21.732
   1.451        -21.734
   1.453        -21.736
   1.455        -21.738
   1.457        -21.740
   1.460        -21.742
   1.462        -21.745
   1.464        -21.747
   1.466        -21.749
   1.468        -21.750
   1.470        -21.752
   1.472        -21.753
   1.475        -21.755
   1.477        -21.757
   1.479        -21.758
   1.481        -21.760
   1.483        -21.761
   1.486        -21.763
   1.488        -21.764
   1.490        -21.765
   1.492        -21.766
   1.494        -21.767
   1.496        -21.768
   1.498        -21.769
   1.501        -21.770
   1.503        -21.770
   1.505        -21.771
   1.507        -21.772
   1.509        -21.773
   1.512        -21.773
   1.514        -21.773
   1.516        -21.773
   1.518        -21.773
   1.520        -21.773
   1.522        -21.773
   1.525        -21.773
   1.527        -21.773
   1.529        -21.773
   1.531        -21.773
   1.533        -21.772
   1.535        -21.772
   1.538        -21.771
   1.540        -21.770
   1.542        -21.770
   1.544        -21.769
   1.546        -21.769
   1.549        -21.768
   1.551        -21.767
   1.553        -21.766
   1.555        -21.765
   1.557        -21.764
   1.559        -21.763
   1.561        -21.762
   1.564        -21.761
   1.566        -21.761
   1.568        -21.760
   1.570        -21.759
   1.572        -21.757
   1.575        -21.756
   1.577        -21.755
   1.579        -21.754
   1.581        -21.753
   1.583        -21.751
   1.585        -21.750
   1.588        -21.749
   1.590        -21.832
   1.592        -22.026
   1.594        -22.031
   1.596        -22.037
   1.598        -22.042
   1.601        -22.047
   1.603        -22.053
   1.605        -22.058
   1.607        -22.064
   1.609        -22.069
   1.611        -22.075
   1.614        -22.081
   1.616        -22.087
   1.618        -22.094
   1.620        -22.100
   1.622        -22.107
   1.624        -22.113
   1.627        -22.120
   1.629        -22.126
   1.631        -22.133
   1.633        -22.140
   1.635        -22.147
   1.637        -22.155
   1.640        -22.162
   1.642        -22.170
   1.644        -22.178
   1.646        -22.185
   1.648        -22.193
   1.651        -22.201
   1.653        -22.208
   1.655        -22.217
   1.657        -22.226
   1.659        -22.235
   1.661        -22.244
   1.664        -22.253
   1.666        -22.262
   1.668        -22.271
   1.670        -22.280
   1.672        -22.289
   1.674        -22.299
   1.676        -22.310
   1.679        -22.322
   1.681        -22.333
   1.683        -22.345
   1.685        -22.356
   1.687        -22.368
   1.690        -22.379
   1.692        -22.391
   1.694        -22.402
   1.696        -22.417
   1.699        -22.437
   1.701        -22.454
   1.703        -22.470
   1.705        -22.486
   1.707        -22.503
   1.709        -22.521
   1.711        -22.538
   1.714        -22.557
   1.716        -22.568
   1.718        -22.594
   1.720        -22.620
   1.722        -22.652
   1.724        -22.683
   1.727        -22.715
   1.729        -22.747
   1.731        -22.778
   1.733        -22.810
   1.735        -22.842
   1.737        -22.869
   1.739        -22.888
   1.742        -22.908
   1.744        -22.927
   1.746        -22.947
   1.748        -22.966
   1.750        -22.986
   1.753        -23.005
   1.755        -23.025
   1.757        -23.043
   1.759        -23.054
   1.761        -23.063
   1.763        -23.072
   1.766        -23.081
   1.768        -23.090
   1.770        -23.098
   1.772        -23.107
   1.774        -23.116
   1.776        -23.125
   1.779        -23.132
   1.781        -23.136
   1.783        -23.139
   1.785        -23.143
   1.787        -23.146
   1.789        -23.150
   1.792        -23.153
   1.794        -23.156
   1.796        -23.160
   1.798        -23.163
   1.800        -23.166
   1.802        -23.167
   1.805        -23.169
   1.807        -23.171
   1.809        -23.172
   1.811        -23.174
   1.813        -23.175
   1.816        -23.177
   1.818        -23.178
   1.820        -23.180
   1.822        -23.181
   1.824        -23.182
   1.826        -23.183
   1.829        -23.184
   1.831        -23.185
   1.833        -23.186
   1.835        -23.187
   1.837        -23.189
   1.839        -23.190
   1.842        -23.191
   1.844        -23.192
   1.846        -23.193
   1.848        -23.194
   1.850        -23.195
   1.852        -23.196
   1.855        -23.196
   1.857        -23.198
   1.859        -23.199
   1.861        -23.199
   1.863        -23.200
   1.865        -23.202
   1.868        -23.203
   1.870        -23.203
   1.872        -23.204
   1.874        -23.206
   1.876        -23.207
   1.878        -23.208
   1.881        -23.209
   1.883        -23.210
   1.885        -23.211
   1.887        -23.212
   1.889        -23.213
   1.891        -23.214
   1.894        -23.215
   1.896        -23.216
   1.898        -23.217
   1.900        -23.218
   1.902        -23.219
   1.905        -23.220
   1.907        -23.222
   1.909        -23.223
   1.911        -23.224
   1.913        -23.225
   1.915        -23.226
   1.918        -23.227
   1.920        -23.229
   1.922        -23.230
   1.924        -23.231
   1.926        -23.232
   1.928        -23.234
   1.931        -23.235
   1.933        -23.236
   1.935        -23.237
   1.937        -23.238
   1.939        -23.240
   1.941        -23.241
   1.944        -23.242
   1.946        -23.243
   1.948        -23.245
   1.950        -23.246
   1.952        -23.248
   1.954        -23.249
   1.957        -23.250
   1.959        -23.252
   1.961        -23.253
   1.963        -23.255
   1.965        -23.256
   1.967        -23.257
   1.970        -23.259
   1.972        -23.260
   1.974        -23.262
   1.976        -23.263
   1.978        -23.265
   1.980        -23.266
   1.983        -23.267
   1.985        -23.269
   1.987        -23.270
   1.989        -23.272
   1.991        -23.273
   1.993        -23.275
   1.996        -23.276
   1.998        -23.278
   2.000        -23.279
   2.002        -23.281
   2.004        -23.283
   2.007        -23.284
   2.009        -23.286
   2.011        -23.288
   2.013        -23.289
   2.015        -23.291
   2.017        -23.292
   2.020        -23.294
   2.022        -23.296
   2.024        -23.297
   2.026        -23.299
   2.028        -23.301
   2.030        -23.302
   2.033        -23.304
   2.035        -23.306
   2.037        -23.308
   2.039        -23.309
   2.041        -23.311
   2.043        -23.313
   2.046        -23.314
   2.048        -23.316
   2.050        -23.318
   2.052        -23.320
   2.054        -23.322
   2.056        -23.323
   2.059        -23.325
   2.061        -23.327
   2.063        -23.329
   2.065        -23.330
   2.067        -23.332
   2.069        -23.334
   2.072        -23.336
   2.074        -23.338
   2.076        -23.340
   2.078        -23.341
   2.080        -23.343
   2.083        -23.345
   2.085        -23.347
   2.087        -23.349
   2.089        -23.351
   2.091        -23.353
   2.093        -23.355
   2.096        -23.357
   2.098        -23.359
   2.100        -23.361
   2.102        -23.363
   2.104        -23.364
   2.106        -23.366
   2.109        -23.368
   2.111        -23.370
   2.113        -23.372
   2.115        -23.374
   2.117        -23.376
   2.120        -23.378
   2.122        -23.380
   2.124        -23.382
   2.126        -23.384
   2.128        -23.385
   2.130        -23.387
   2.133        -23.389
   2.135        -23.391
   2.137        -23.393
   2.139        -23.395
   2.141        -23.397
   2.143        -23.399
   2.145        -23.400
   2.148        -23.403
   2.150        -23.404
   2.152        -23.406
   2.154        -23.408
   2.157        -23.410
   2.158        -23.412
   2.161        -23.414
   2.163        -23.416
   2.165        -23.418
   2.167        -23.419
   2.169        -23.421
   2.172        -23.423
   2.174        -23.425
   2.176        -23.427
   2.178        -23.429
   2.180        -23.431
   2.183        -23.433
   2.185        -23.435
   2.187        -23.436
   2.189        -23.438
   2.191        -23.440
   2.193        -23.442
   2.195        -23.444
   2.197        -23.445
   2.200        -23.447
   2.202        -23.449
   2.204        -23.451
   2.206        -23.453
   2.208        -23.455
   2.211        -23.456
   2.213        -23.458
   2.215        -23.460
   2.217        -23.462
   2.219        -23.464
   2.221        -23.465
   2.224        -23.467
   2.226        -23.469
   2.228        -23.470
   2.230        -23.472
   2.232        -23.474
   2.235        -23.476
   2.237        -23.477
   2.239        -23.479
   2.241        -23.481
   2.243        -23.482
   2.245        -23.484
   2.247        -23.486
   2.250        -23.487
   2.252        -23.489
   2.254        -23.491
   2.256        -23.492
   2.259        -23.494
   2.261        -23.495
   2.263        -23.497
   2.265        -23.498
   2.267        -23.500
   2.269        -23.502
   2.271        -23.503
   2.274        -23.504
   2.276        -23.506
   2.278        -23.508
   2.280        -23.509
   2.282        -23.510
   2.284        -23.512
   2.287        -23.513
   2.289        -23.515
   2.291        -23.516
   2.293        -23.517
   2.295        -23.519
   2.297        -23.520
   2.299        -23.521
   2.302        -23.523
   2.304        -23.524
   2.306        -23.525
   2.308        -23.526
   2.310        -23.528
   2.313        -23.529
   2.315        -23.530
   2.317        -23.532
   2.319        -23.533
   2.321        -23.534
   2.323        -23.535
   2.326        -23.536
   2.328        -23.537
   2.330        -23.539
   2.332        -23.540
   2.334        -23.541
   2.337        -23.542
   2.339        -23.543
   2.341        -23.544
   2.343        -23.546
   2.345        -23.547
   2.347        -23.548
   2.349        -23.549
   2.352        -23.550
   2.354        -23.551
   2.356        -23.552
   2.358        -23.553
   2.360        -23.554
   2.363        -23.556
   2.365        -23.557
   2.367        -23.558
   2.369        -23.559
   2.371        -23.560
   2.374        -23.561
   2.376        -23.562
   2.378        -23.563
   2.380        -23.564
   2.382        -23.565
   2.384        -23.567
   2.386        -23.568
   2.389        -23.569
   2.391        -23.571
   2.393        -23.572
   2.395        -23.573
   2.397        -23.574
   2.400        -23.576
   2.402        -23.577
   2.404        -23.578
   2.406        -23.580
   2.408        -23.581
   2.410        -23.583
   2.413        -23.585
   2.415        -23.586
   2.417        -23.588
   2.419        -23.589
   2.421        -23.591
   2.423        -23.592
   2.425        -23.594
   2.428        -23.595
   2.430        -23.596
   2.432        -23.597
   2.434        -23.599
   2.436        -23.600
   2.439        -23.601
   2.441        -23.602
   2.443        -23.603
   2.445        -23.605
   2.447        -23.605
   2.449        -23.606
   2.452        -23.606
   2.454        -23.607
   2.456        -23.607
   2.458        -23.608
   2.460        -23.609
   2.462        -23.609
   2.465        -23.610
   2.467        -23.610
   2.469        -23.611
   2.471        -23.611
   2.473        -23.612
   2.475        -23.612
   2.478        -23.613
   2.480        -23.613
   2.482        -23.614
   2.484        -23.614
   2.486        -23.614
   2.489        -23.615
   2.491        -23.616
   2.493        -23.616
   2.495        -23.617
   2.497        -23.617
   2.499        -23.617
   2.502        -23.618
   2.504        -23.618
   2.506        -23.619
   2.508        -23.619
   2.510        -23.620
   2.512        -23.621
   2.514        -23.621
   2.517        -23.622
   2.519        -23.622
   2.521        -23.623
   2.523        -23.623
   2.525        -23.624
   2.528        -23.624
   2.530        -23.625
   2.532        -23.626
   2.534        -23.626
   2.536        -23.627
   2.538        -23.628
   2.541        -23.628
   2.543        -23.629
   2.545        -23.630
   2.547        -23.630
   2.549        -23.631
   2.552        -23.632
   2.554        -23.633
   2.556        -23.634
   2.558        -23.635
   2.560        -23.636
   2.562        -23.637
   2.565        -23.638
   2.567        -23.639
   2.569        -23.639
   2.571        -23.641
   2.573        -23.642
   2.575        -23.643
   2.578        -23.645
   2.580        -23.646
   2.582        -23.647
   2.584        -23.648
   2.586        -23.650
   2.588        -23.651
   2.590        -23.652
   2.593        -23.654
   2.595        -23.656
   2.597        -23.658
   2.599        -23.659
   2.601        -23.661
   2.604        -23.663
   2.606        -23.665
   2.608        -23.667
   2.610        -23.668
   2.612        -23.671
   2.614        -23.673
   2.617        -23.676
   2.619        -23.678
   2.621        -23.681
   2.623        -23.684
   2.625        -23.686
   2.627        -23.689
   2.630        -23.691
   2.632        -23.694
   2.634        -23.698
   2.636        -23.701
   2.638        -23.705
   2.641        -23.709
   2.643        -23.713
   2.645        -23.716
   2.647        -23.720
   2.649        -23.724
   2.651        -23.728
   2.654        -23.732
   2.656        -23.737
   2.658        -23.743
   2.660        -23.748
   2.662        -23.754
   2.664        -23.759
   2.666        -23.764
   2.669        -23.770
   2.671        -23.775
   2.673        -23.780
   2.675        -23.787
   2.677        -23.794
   2.680        -23.800
   2.682        -23.807
   2.684        -23.814
   2.686        -23.821
   2.688        -23.828
   2.690        -23.835
   2.693        -23.841
   2.695        -23.848
   2.697        -23.855
   2.699        -23.861
   2.701        -23.868
   2.703        -23.875
   2.706        -23.881
   2.708        -23.888
   2.710        -23.895
   2.712        -23.901
   2.714        -23.908
   2.716        -23.914
   2.719        -23.920
   2.721        -23.926
   2.723        -23.931
   2.725        -23.937
   2.727        -23.943
   2.729        -23.949
   2.732        -23.954
   2.734        -23.960
   2.736        -23.966
   2.738        -23.971
   2.740        -23.976
   2.743        -23.981
   2.745        -23.986
   2.747        -23.991
   2.749        -23.996
   2.751        -24.002
   2.753        -24.007
   2.756        -24.012
   2.758        -24.017
   2.760        -24.021
   2.762        -24.026
   2.764        -24.030
   2.766        -24.035
   2.769        -24.040
   2.771        -24.044
   2.773        -24.049
   2.775        -24.054
   2.777        -24.059
   2.779        -24.063
   2.782        -24.067
   2.784        -24.071
   2.786        -24.075
   2.788        -24.079
   2.790        -24.084
   2.792        -24.088
   2.795        -24.092
   2.797        -24.096
   2.799        -24.100
   2.801        -24.104
   2.803        -24.108
   2.805        -24.111
   2.808        -24.115
   2.810        -24.119
   2.812        -24.123
   2.814        -24.127
   2.816        -24.131
   2.819        -24.134
   2.821        -24.138
   2.823        -24.141
   2.825        -24.144
   2.827        -24.148
   2.829        -24.151
   2.832        -24.154
   2.834        -24.158
   2.836        -24.161
   2.838        -24.164
   2.840        -24.168
   2.842        -24.171
   2.845        -24.173
   2.847        -24.177
   2.849        -24.179
   2.851        -24.182
   2.853        -24.185
   2.855        -24.188
   2.858        -24.191
   2.860        -24.194
   2.862        -24.197
   2.864        -24.199
   2.866        -24.202
   2.868        -24.204
   2.871        -24.206
   2.873        -24.209
   2.875        -24.212
   2.877        -24.214
   2.879        -24.217
   2.881        -24.219
   2.884        -24.222
   2.886        -24.224
   2.888        -24.226
   2.890        -24.229
   2.892        -24.231
   2.894        -24.233
   2.897        -24.235
   2.899        -24.238
   2.901        -24.240
   2.903        -24.242
   2.905        -24.244
   2.908        -24.246
   2.910        -24.248
   2.912        -24.250
   2.914        -24.252
   2.916        -24.254
   2.918        -24.256
   2.921        -24.257
   2.923        -24.260
   2.925        -24.261
   2.927        -24.263
   2.929        -24.264
   2.931        -24.266
   2.934        -24.267
   2.936        -24.269
   2.938        -24.271
   2.940        -24.272
   2.942        -24.274
   2.944        -24.275
   2.947        -24.277
   2.949        -24.278
   2.951        -24.280
   2.953        -24.281
   2.955        -24.282
   2.957        -24.284
   2.960        -24.285
   2.962        -24.286
   2.964        -24.288
   2.966        -24.289
   2.968        -24.291
   2.970        -24.292
   2.973        -24.293
   2.975        -24.294
   2.977        -24.296
   2.979        -24.297
   2.981        -24.298
   2.984        -24.299
   2.986        -24.301
   2.988        -24.302
   2.990        -24.303
   2.992        -24.304
   2.994        -24.306
   2.997        -24.307
   2.999        -24.308
   3.001        -24.309
   3.003        -24.310
   3.005        -24.311
   3.007        -24.313
   3.010        -24.314
   3.012        -24.315
   3.014        -24.316
   3.016        -24.317
   3.018        -24.318
   3.020        -24.320
   3.023        -24.321
   3.025        -24.322
   3.027        -24.323
   3.029        -24.324
   3.031        -24.325
   3.033        -24.326
   3.036        -24.327
   3.038        -24.328
   3.040        -24.330
   3.042        -24.331
   3.044        -24.332
   3.046        -24.333
   3.049        -24.334
   3.051        -24.335
   3.053        -24.336
   3.055        -24.337
   3.057        -24.338
   3.060        -24.339
   3.062        -24.340
   3.064        -24.341
   3.066        -24.342
   3.068        -24.343
   3.070        -24.345
   3.073        -24.346
   3.075        -24.347
   3.077        -24.348
   3.079        -24.349
   3.081        -24.350
   3.083        -24.351
   3.086        -24.352
   3.088        -24.353
   3.090        -24.354
   3.092        -24.355
   3.094        -24.356
   3.096        -24.357
   3.099        -24.358
   3.101        -24.359
   3.103        -24.360
   3.105        -24.361
   3.107        -24.362
   3.109        -24.363
   3.112        -24.364
   3.114        -24.365
   3.116        -24.366
   3.118        -24.367
   3.120        -24.368
   3.123        -24.368
   3.125        -24.369
   3.127        -24.370
   3.129        -24.371
   3.131        -24.372
   3.133        -24.373
   3.136        -24.374
   3.138        -24.375
   3.140        -24.376
   3.142        -24.377
   3.144        -24.378
   3.146        -24.378
   3.149        -24.380
   3.151        -24.380
   3.153        -24.382
   3.155        -24.382
   3.157        -24.383
   3.159        -24.384
   3.162        -24.385
   3.164        -24.386
   3.166        -24.387
   3.168        -24.388
   3.170        -24.389
   3.172        -24.390
   3.175        -24.391
   3.177        -24.392
   3.179        -24.392
   3.181        -24.393
   3.183        -24.394
   3.185        -24.395
   3.188        -24.396
   3.190        -24.397
   3.192        -24.398
   3.194        -24.399
   3.196        -24.400
   3.199        -24.401
   3.201        -24.402
   3.203        -24.403
   3.205        -24.404
   3.207        -24.405
   3.209        -24.406
   3.212        -24.407
   3.214        -24.407
   3.216        -24.408
   3.218        -24.409
   3.220        -24.410
   3.222        -24.411
   3.225        -24.412
   3.227        -24.413
   3.229        -24.414
   3.231        -24.415
   3.233        -24.416
   3.236        -24.417
   3.237        -24.418
   3.240        -24.419
   3.242        -24.420
   3.244        -24.420
   3.246        -24.421
   3.248        -24.422
   3.251        -24.423
   3.253        -24.423
   3.255        -24.424
   3.257        -24.425
   3.259        -24.426
   3.261        -24.427
   3.263        -24.428
   3.266        -24.429
   3.268        -24.430
   3.270        -24.430
   3.272        -24.431
   3.274        -24.432
   3.277        -24.433
   3.279        -24.434
   3.281        -24.434
   3.283        -24.435
   3.285        -24.436
   3.287        -24.437
   3.290        -24.438
   3.292        -24.439
   3.294        -24.439
   3.296        -24.440
   3.298        -24.441
   3.301        -24.442
   3.303        -24.443
   3.305        -24.444
   3.307        -24.446
   3.309        -24.447
   3.311        -24.448
   3.313        -24.449
   3.316        -24.450
   3.318        -24.451
   3.320        -24.453
   3.322        -24.454
   3.324        -24.455
   3.327        -24.456
   3.329        -24.457
   3.331        -24.458
   3.333        -24.459
   3.335        -24.461
   3.337        -24.462
   3.340        -24.463
   3.342        -24.464
   3.344        -24.465
   3.346        -24.467
   3.348        -24.467
   3.350        -24.469
   3.352        -24.470
   3.355        -24.471
   3.357        -24.472
   3.359        -24.473
   3.361        -24.474
   3.363        -24.475
   3.366        -24.476
   3.368        -24.478
   3.370        -24.479
   3.372        -24.480
   3.374        -24.481
   3.376        -24.482
   3.379        -24.483
   3.381        -24.484
   3.383        -24.485
   3.385        -24.486
   3.387        -24.487
   3.389        -24.488
   3.392        -24.489
   3.394        -24.491
   3.396        -24.492
   3.398        -24.493
   3.400        -24.494
   3.402        -24.495
   3.405        -24.496
   3.407        -24.497
   3.409        -24.498
   3.411        -24.499
   3.413        -24.500
   3.416        -24.501
   3.418        -24.502
   3.420        -24.503
   3.422        -24.504
   3.424        -24.505
   3.426        -24.506
   3.429        -24.507
   3.431        -24.508
   3.433        -24.509
   3.435        -24.510
   3.437        -24.511
   3.439        -24.512
   3.442        -24.513
   3.444        -24.514
   3.446        -24.515
   3.448        -24.516
   3.450        -24.517
   3.452        -24.518
   3.455        -24.519
   3.457        -24.520
   3.459        -24.521
   3.461        -24.522
   3.463        -24.523
   3.466        -24.524
   3.468        -24.525
   3.470        -24.526
   3.472        -24.527
   3.474        -24.528
   3.476        -24.529
   3.478        -24.530
   3.481        -24.531
   3.483        -24.532
   3.485        -24.533
   3.487        -24.534
   3.489        -24.535
   3.492        -24.536
   3.494        -24.537
   3.496        -24.538
   3.498        -24.539
   3.500        -24.540
   3.502        -24.540
   3.505        -24.541
   3.507        -24.542
   3.509        -24.543
   3.511        -24.544
   3.513        -24.545
   3.515        -24.546
   3.518        -24.547
   3.520        -24.548
   3.522        -24.549
   3.524        -24.549
   3.526        -24.550
   3.528        -24.551
   3.531        -24.552
   3.533        -24.553
   3.535        -24.554
   3.537        -24.555
   3.539        -24.556
   3.541        -24.557
   3.544        -24.558
   3.546        -24.558
   3.548        -24.560
   3.550        -24.560
   3.552        -24.561
   3.555        -24.562
   3.557        -24.563
   3.559        -24.564
   3.561        -24.565
   3.563        -24.566
   3.565        -24.567
   3.568        -24.568
   3.570        -24.568
   3.572        -24.569
   3.574        -24.570
   3.576        -24.571
   3.578        -24.572
   3.581        -24.573
   3.583        -24.573
   3.585        -24.574
   3.587        -24.575
   3.589        -24.576
   3.591        -24.577
   3.594        -24.578
   3.596        -24.579
   3.598        -24.580
   3.600        -24.580
   3.602        -24.581
   3.604        -24.582
   3.607        -24.583
   3.609        -24.584
   3.611        -24.585
   3.613        -24.586
   3.615        -24.587
   3.617        -24.588
   3.620        -24.589
   3.622        -24.590
   3.624        -24.591
   3.626        -24.592
   3.628        -24.593
   3.630        -24.594
   3.633        -24.595
   3.635        -24.596
   3.637        -24.597
   3.639        -24.598
   3.641        -24.599
   3.644        -24.600
   3.646        -24.601
   3.648        -24.602
   3.650        -24.603
   3.652        -24.604
   3.654        -24.605
   3.657        -24.606
   3.659        -24.607
   3.661        -24.608
   3.663        -24.609
   3.665        -24.610
   3.667        -24.611
   3.670        -24.612
   3.672        -24.613
   3.674        -24.614
   3.676        -24.615
   3.678        -24.616
   3.680        -24.617
   3.683        -24.618
   3.685        -24.619
   3.687        -24.621
   3.689        -24.622
   3.691        -24.623
   3.693        -24.624
   3.696        -24.625
   3.698        -24.626
   3.700        -24.627
   3.702        -24.628
   3.704        -24.629
   3.706        -24.631
   3.709        -24.632
   3.711        -24.633
   3.713        -24.634
   3.715        -24.635
   3.717        -24.636
   3.719        -24.638
   3.722        -24.639
   3.724        -24.640
   3.726        -24.641
   3.728        -24.642
   3.730        -24.643
   3.733        -24.645
   3.735        -24.646
   3.737        -24.647
   3.739        -24.648
   3.741        -24.650
   3.743        -24.651
   3.746        -24.652
   3.748        -24.654
   3.750        -24.655
   3.752        -24.656
   3.754        -24.657
   3.756        -24.659
   3.759        -24.660
   3.761        -24.661
   3.763        -24.663
   3.765        -24.664
   3.767        -24.666
   3.769        -24.667
   3.772        -24.668
   3.774        -24.670
   3.776        -24.671
   3.778        -24.673
   3.780        -24.674
   3.782        -24.675
   3.785        -24.677
   3.787        -24.678
   3.789        -24.680
   3.791        -24.681
   3.793        -24.683
   3.795        -24.684
   3.798        -24.686
   3.800        -24.687
   3.802        -24.689
   3.804        -24.691
   3.806        -24.692
   3.809        -24.694
   3.811        -24.696
   3.813        -24.697
   3.815        -24.699
   3.817        -24.700
   3.819        -24.702
   3.822        -24.703
   3.824        -24.705
   3.826        -24.707
   3.828        -24.708
   3.830        -24.710
   3.832        -24.711
   3.835        -24.713
   3.837        -24.714
   3.839        -24.716
   3.841        -24.717
   3.843        -24.718
   3.845        -24.719
   3.848        -24.720
   3.850        -24.721
   3.852        -24.722
   3.854        -24.723
   3.856        -24.725
   3.858        -24.726
   3.861        -24.727
   3.863        -24.727
   3.865        -24.728
   3.867        -24.729
   3.869        -24.730
   3.871        -24.730
   3.874        -24.731
   3.876        -24.732
   3.878        -24.732
   3.880        -24.733
   3.882        -24.734
   3.885        -24.735
   3.887        -24.735
   3.889        -24.736
   3.891        -24.736
   3.899        -24.739
   3.912        -24.743
   3.925        -24.747
   3.938        -24.752
   3.951        -24.756
   3.964        -24.759
   3.977        -24.763
   3.990        -24.767
   4.003        -24.771
   4.016        -24.775
   4.029        -24.778
   4.042        -24.782
   4.055        -24.786
   4.068        -24.789
   4.081        -24.793
   4.094        -24.796
   4.107        -24.800
   4.120        -24.804
   4.133        -24.807
   4.146        -24.811
   4.159        -24.814
   4.172        -24.818
   4.185        -24.822
   4.198        -24.827
   4.211        -24.831
   4.224        -24.836
   4.237        -24.841
   4.250        -24.846
   4.263        -24.852
   4.276        -24.859
   4.289        -24.865
   4.302        -24.873
   4.315        -24.880
   4.328        -24.888
   4.341        -24.897
   4.354        -24.906
   4.367        -24.915
   4.380        -24.925
   4.393        -24.936
   4.406        -24.946
   4.420        -24.957
   4.432        -24.969
   4.445        -24.980
   4.459        -24.992
   4.471        -25.004
   4.484        -25.017
   4.498        -25.029
   4.510        -25.042
   4.524        -25.055
   4.537        -25.068
   4.550        -25.082
   4.563        -25.096
   4.576        -25.110
   4.589        -25.124
   4.602        -25.138
   4.615        -25.152
   4.628        -25.167
   4.641        -25.182
   4.654        -25.197
   4.667        -25.212
   4.680        -25.227
   4.693        -25.242
   4.706        -25.258
   4.719        -25.273
   4.732        -25.289
   4.745        -25.305
   4.758        -25.321
   4.771        -25.337
   4.784        -25.354
   4.797        -25.370
   4.810        -25.387
   4.823        -25.403
   4.836        -25.421
   4.849        -25.437
   4.862        -25.455
   4.875        -25.472
   4.888        -25.490
   4.901        -25.507
   4.914        -25.525
   4.927        -25.543
   4.940        -25.561
   4.953        -25.579
   4.966        -25.598
   4.979        -25.617
   4.992        -25.635
   5.005        -25.654
   5.018        -25.673
   5.031        -25.692
   5.044        -25.711
   5.057        -25.731
   5.070        -25.750
   5.083        -25.770
   5.096        -25.789
   5.109        -25.809
   5.123        -25.829
   5.136        -25.849
   5.149        -25.869
   5.162        -25.889
   5.175        -25.909
   5.188        -25.929
   5.201        -25.949
   5.214        -25.970
   5.227        -25.990
   5.240        -26.010
   5.253        -26.031
   5.266        -26.051
   5.279        -26.072
   5.292        -26.092
   5.305        -26.113
   5.318        -26.134
   5.331        -26.155
   5.344        -26.176
   5.357        -26.197
   5.370        -26.219
   5.383        -26.240
   5.396        -26.262
   5.409        -26.284
   5.422        -26.307
   5.435        -26.329
   5.448        -26.352
   5.461        -26.375
   5.474        -26.398
   5.487        -26.422
   5.500        -26.445
   5.513        -26.470
   5.526        -26.494
   5.539        -26.519
   5.552        -26.544
   5.565        -26.569
   5.578        -26.595
   5.591        -26.621
   5.604        -26.647
   5.617        -26.674
   5.630        -26.702
   5.643        -26.729
   5.656        -26.757
   5.669        -26.786
   5.682        -26.815
   5.695        -26.844
   5.708        -26.874
   5.721        -26.904
   5.734        -26.935
   5.748        -26.967
   5.761        -26.998
   5.774        -27.031
   5.787        -27.064
   5.800        -27.098
   5.813        -27.132
   5.826        -27.167
   5.839        -27.203
   5.852        -27.239
   5.865        -27.276
   5.878        -27.314
   5.891        -27.353
   5.904        -27.392
   5.917        -27.431
   5.930        -27.472
   5.943        -27.514
   5.956        -27.556
   5.969        -27.599
   5.982        -27.643
   5.995        -27.689
   6.008        -27.735
   6.021        -27.783
   6.034        -27.830
   6.047        -27.879
   6.060        -27.930
   6.073        -27.981
   6.086        -28.033
   6.099        -28.087
   6.112        -28.142
   6.125        -28.198
   6.138        -28.255
   6.151        -28.313
   6.164        -28.374
   6.177        -28.435
   6.190        -28.498
   6.203        -28.562
   6.216        -28.628
   6.229        -28.695
   6.242        -28.764
   6.255        -28.835
   6.268        -28.907
   6.281        -28.981
   6.294        -29.057
   6.307        -29.134
   6.320        -29.213
   6.334        -29.295
   6.346        -29.378
   6.359        -29.463
   6.372        -29.551
   6.386        -29.640
   6.399        -29.732
   6.411        -29.827
   6.425        -29.923
   6.438        -30.023
   6.451        -30.124
   6.464        -30.227
   6.477        -30.333
   6.490        -30.441
   6.503        -30.555
   6.516        -30.670
   6.529        -30.787
   6.542        -30.908
   6.555        -31.033
   6.568        -31.159
   6.581        -31.290
   6.594        -31.424
   6.607        -31.564
   6.620        -31.706
   6.633        -31.849
   6.646        -31.995
   6.659        -32.147
   6.672        -32.305
   6.685        -32.465
   6.698        -32.630
   6.711        -32.800
   6.724        -32.976
   6.737        -33.154
   6.750        -33.335
   6.763        -33.528
   6.776        -33.730
   6.789        -33.931
   6.802        -34.134
   6.815        -34.344
   6.828        -34.583
   6.841        -34.842
   6.854        -35.142
   6.867        -35.769
   6.880        -36.820
   6.893        -40.521
