# log Energy    log Jnu
# (eV)          (ergs/s/cm2/Hz/Sr)
  -6.864        -20.421
  -6.820        -20.334
  -6.777        -20.247
  -6.734        -20.160
  -6.690        -20.073
  -6.647        -19.986
  -6.603        -19.899
  -6.560        -19.813
  -6.516        -19.726
  -6.473        -19.639
  -6.430        -19.552
  -6.386        -19.465
  -6.343        -19.378
  -6.299        -19.292
  -6.256        -19.205
  -6.212        -19.118
  -6.169        -19.031
  -6.126        -18.944
  -6.082        -18.857
  -6.039        -18.771
  -5.995        -18.684
  -5.952        -18.597
  -5.908        -18.510
  -5.865        -18.424
  -5.822        -18.336
  -5.778        -18.250
  -5.735        -18.163
  -5.691        -18.076
  -5.648        -17.989
  -5.605        -17.902
  -5.561        -17.816
  -5.518        -17.729
  -5.474        -17.642
  -5.431        -17.555
  -5.387        -17.469
  -5.344        -17.382
  -5.300        -17.295
  -5.257        -17.208
  -5.214        -17.122
  -5.170        -17.035
  -5.127        -16.948
  -5.083        -16.862
  -5.040        -16.775
  -4.996        -16.688
  -4.953        -16.602
  -4.910        -16.515
  -4.866        -16.429
  -4.823        -16.342
  -4.779        -16.256
  -4.736        -16.169
  -4.692        -16.083
  -4.649        -15.997
  -4.606        -15.911
  -4.562        -15.825
  -4.519        -15.739
  -4.475        -15.653
  -4.432        -15.567
  -4.388        -15.481
  -4.345        -15.395
  -4.302        -15.310
  -4.258        -15.224
  -4.215        -15.139
  -4.171        -15.054
  -4.128        -14.969
  -4.084        -14.884
  -4.041        -14.800
  -3.998        -14.715
  -3.954        -14.631
  -3.911        -14.548
  -3.867        -14.465
  -3.824        -14.382
  -3.781        -14.299
  -3.737        -14.217
  -3.693        -14.136
  -3.650        -14.055
  -3.607        -13.975
  -3.584        -13.937
  -3.582        -13.927
  -3.580        -13.926
  -3.577        -13.922
  -3.575        -13.919
  -3.573        -13.915
  -3.571        -13.910
  -3.569        -13.907
  -3.567        -13.903
  -3.564        -13.899
  -3.562        -13.895
  -3.560        -13.891
  -3.558        -13.887
  -3.556        -13.883
  -3.554        -13.879
  -3.551        -13.875
  -3.549        -13.871
  -3.547        -13.867
  -3.545        -13.863
  -3.543        -13.859
  -3.540        -13.855
  -3.538        -13.852
  -3.536        -13.847
  -3.534        -13.843
  -3.532        -13.840
  -3.530        -13.836
  -3.528        -13.832
  -3.525        -13.828
  -3.523        -13.824
  -3.521        -13.820
  -3.519        -13.816
  -3.517        -13.812
  -3.514        -13.808
  -3.512        -13.805
  -3.510        -13.800
  -3.508        -13.797
  -3.506        -13.793
  -3.504        -13.789
  -3.502        -13.785
  -3.499        -13.781
  -3.497        -13.777
  -3.495        -13.773
  -3.493        -13.769
  -3.491        -13.766
  -3.488        -13.762
  -3.486        -13.758
  -3.484        -13.754
  -3.482        -13.750
  -3.480        -13.746
  -3.477        -13.742
  -3.475        -13.738
  -3.473        -13.735
  -3.471        -13.731
  -3.469        -13.727
  -3.467        -13.723
  -3.464        -13.719
  -3.462        -13.715
  -3.460        -13.712
  -3.458        -13.708
  -3.456        -13.704
  -3.454        -13.700
  -3.451        -13.696
  -3.449        -13.692
  -3.447        -13.689
  -3.445        -13.685
  -3.443        -13.681
  -3.441        -13.677
  -3.438        -13.673
  -3.436        -13.669
  -3.434        -13.666
  -3.432        -13.662
  -3.430        -13.658
  -3.428        -13.654
  -3.425        -13.650
  -3.423        -13.647
  -3.421        -13.643
  -3.419        -13.639
  -3.417        -13.635
  -3.415        -13.631
  -3.412        -13.628
  -3.410        -13.624
  -3.408        -13.620
  -3.406        -13.616
  -3.404        -13.612
  -3.402        -13.609
  -3.399        -13.605
  -3.397        -13.601
  -3.395        -13.597
  -3.393        -13.594
  -3.391        -13.590
  -3.389        -13.586
  -3.386        -13.583
  -3.384        -13.579
  -3.382        -13.575
  -3.380        -13.571
  -3.378        -13.568
  -3.376        -13.564
  -3.373        -13.560
  -3.371        -13.556
  -3.369        -13.553
  -3.367        -13.549
  -3.365        -13.545
  -3.362        -13.542
  -3.360        -13.538
  -3.358        -13.534
  -3.356        -13.530
  -3.354        -13.527
  -3.352        -13.523
  -3.349        -13.519
  -3.347        -13.516
  -3.345        -13.512
  -3.343        -13.508
  -3.341        -13.505
  -3.339        -13.501
  -3.336        -13.497
  -3.334        -13.494
  -3.332        -13.490
  -3.330        -13.486
  -3.328        -13.483
  -3.326        -13.479
  -3.323        -13.475
  -3.321        -13.472
  -3.319        -13.468
  -3.317        -13.464
  -3.315        -13.461
  -3.313        -13.457
  -3.310        -13.454
  -3.308        -13.450
  -3.306        -13.446
  -3.304        -13.443
  -3.302        -13.439
  -3.300        -13.436
  -3.297        -13.432
  -3.295        -13.428
  -3.293        -13.425
  -3.291        -13.421
  -3.289        -13.418
  -3.287        -13.414
  -3.284        -13.410
  -3.282        -13.407
  -3.280        -13.403
  -3.278        -13.400
  -3.276        -13.396
  -3.273        -13.393
  -3.271        -13.389
  -3.269        -13.386
  -3.267        -13.382
  -3.265        -13.379
  -3.263        -13.375
  -3.260        -13.371
  -3.258        -13.368
  -3.256        -13.364
  -3.254        -13.361
  -3.252        -13.357
  -3.250        -13.354
  -3.247        -13.350
  -3.245        -13.347
  -3.243        -13.343
  -3.241        -13.340
  -3.239        -13.336
  -3.237        -13.333
  -3.234        -13.330
  -3.232        -13.326
  -3.230        -13.323
  -3.228        -13.319
  -3.226        -13.316
  -3.224        -13.312
  -3.221        -13.309
  -3.219        -13.305
  -3.217        -13.302
  -3.215        -13.299
  -3.213        -13.295
  -3.211        -13.292
  -3.208        -13.288
  -3.206        -13.285
  -3.204        -13.281
  -3.202        -13.278
  -3.200        -13.275
  -3.197        -13.272
  -3.195        -13.268
  -3.193        -13.265
  -3.191        -13.261
  -3.189        -13.258
  -3.187        -13.255
  -3.184        -13.251
  -3.182        -13.248
  -3.180        -13.245
  -3.178        -13.241
  -3.176        -13.238
  -3.174        -13.235
  -3.171        -13.231
  -3.169        -13.228
  -3.167        -13.225
  -3.165        -13.221
  -3.163        -13.218
  -3.161        -13.215
  -3.158        -13.211
  -3.156        -13.208
  -3.154        -13.205
  -3.152        -13.202
  -3.150        -13.198
  -3.148        -13.195
  -3.145        -13.192
  -3.143        -13.189
  -3.141        -13.185
  -3.139        -13.182
  -3.137        -13.179
  -3.135        -13.176
  -3.132        -13.172
  -3.130        -13.169
  -3.128        -13.166
  -3.126        -13.163
  -3.124        -13.160
  -3.122        -13.156
  -3.119        -13.154
  -3.117        -13.150
  -3.115        -13.147
  -3.113        -13.144
  -3.111        -13.141
  -3.108        -13.138
  -3.106        -13.135
  -3.104        -13.132
  -3.102        -13.128
  -3.100        -13.125
  -3.098        -13.122
  -3.095        -13.119
  -3.093        -13.116
  -3.091        -13.113
  -3.089        -13.110
  -3.087        -13.107
  -3.085        -13.104
  -3.082        -13.101
  -3.080        -13.098
  -3.078        -13.094
  -3.076        -13.092
  -3.074        -13.089
  -3.072        -13.086
  -3.069        -13.082
  -3.067        -13.080
  -3.065        -13.077
  -3.063        -13.074
  -3.061        -13.071
  -3.059        -13.068
  -3.056        -13.065
  -3.054        -13.062
  -3.052        -13.059
  -3.050        -13.056
  -3.048        -13.053
  -3.046        -13.050
  -3.043        -13.047
  -3.041        -13.044
  -3.039        -13.041
  -3.037        -13.038
  -3.035        -13.036
  -3.032        -13.033
  -3.030        -13.030
  -3.028        -13.027
  -3.026        -13.024
  -3.024        -13.021
  -3.022        -13.019
  -3.019        -13.016
  -3.017        -13.013
  -3.015        -13.010
  -3.013        -13.007
  -3.011        -13.005
  -3.009        -13.002
  -3.006        -12.999
  -3.004        -12.996
  -3.002        -12.993
  -3.000        -12.991
  -2.998        -12.988
  -2.996        -12.985
  -2.993        -12.983
  -2.991        -12.980
  -2.989        -12.977
  -2.987        -12.975
  -2.985        -12.972
  -2.983        -12.969
  -2.980        -12.967
  -2.978        -12.964
  -2.976        -12.961
  -2.974        -12.959
  -2.972        -12.956
  -2.970        -12.953
  -2.967        -12.951
  -2.965        -12.948
  -2.963        -12.946
  -2.961        -12.943
  -2.959        -12.941
  -2.956        -12.938
  -2.954        -12.936
  -2.952        -12.933
  -2.950        -12.931
  -2.948        -12.928
  -2.946        -12.926
  -2.944        -12.923
  -2.941        -12.921
  -2.939        -12.918
  -2.937        -12.916
  -2.935        -12.913
  -2.933        -12.911
  -2.930        -12.909
  -2.928        -12.906
  -2.926        -12.904
  -2.924        -12.901
  -2.922        -12.899
  -2.920        -12.897
  -2.917        -12.894
  -2.915        -12.892
  -2.913        -12.890
  -2.911        -12.888
  -2.909        -12.885
  -2.907        -12.883
  -2.904        -12.881
  -2.902        -12.878
  -2.900        -12.876
  -2.898        -12.874
  -2.896        -12.872
  -2.894        -12.870
  -2.891        -12.867
  -2.889        -12.865
  -2.887        -12.863
  -2.885        -12.861
  -2.883        -12.859
  -2.880        -12.857
  -2.878        -12.855
  -2.876        -12.853
  -2.874        -12.850
  -2.872        -12.848
  -2.870        -12.846
  -2.867        -12.844
  -2.865        -12.842
  -2.863        -12.840
  -2.861        -12.838
  -2.859        -12.836
  -2.857        -12.834
  -2.855        -12.832
  -2.852        -12.830
  -2.850        -12.828
  -2.848        -12.827
  -2.846        -12.825
  -2.843        -12.823
  -2.842        -12.821
  -2.839        -12.819
  -2.837        -12.817
  -2.835        -12.815
  -2.833        -12.814
  -2.831        -12.812
  -2.828        -12.810
  -2.826        -12.808
  -2.824        -12.806
  -2.822        -12.805
  -2.820        -12.803
  -2.817        -12.801
  -2.815        -12.800
  -2.813        -12.798
  -2.811        -12.797
  -2.809        -12.795
  -2.807        -12.793
  -2.805        -12.791
  -2.802        -12.790
  -2.800        -12.789
  -2.798        -12.787
  -2.796        -12.785
  -2.794        -12.784
  -2.792        -12.782
  -2.789        -12.781
  -2.787        -12.779
  -2.785        -12.778
  -2.783        -12.776
  -2.781        -12.775
  -2.779        -12.774
  -2.776        -12.772
  -2.774        -12.771
  -2.772        -12.769
  -2.770        -12.768
  -2.767        -12.767
  -2.765        -12.766
  -2.763        -12.765
  -2.761        -12.763
  -2.759        -12.762
  -2.757        -12.761
  -2.754        -12.760
  -2.753        -12.758
  -2.750        -12.757
  -2.748        -12.756
  -2.746        -12.755
  -2.744        -12.754
  -2.741        -12.753
  -2.739        -12.752
  -2.737        -12.751
  -2.735        -12.750
  -2.733        -12.749
  -2.731        -12.748
  -2.729        -12.747
  -2.726        -12.746
  -2.724        -12.745
  -2.722        -12.744
  -2.720        -12.743
  -2.718        -12.743
  -2.716        -12.741
  -2.713        -12.741
  -2.711        -12.740
  -2.709        -12.739
  -2.707        -12.738
  -2.705        -12.738
  -2.703        -12.737
  -2.700        -12.736
  -2.698        -12.736
  -2.696        -12.735
  -2.694        -12.735
  -2.692        -12.734
  -2.689        -12.733
  -2.687        -12.733
  -2.685        -12.732
  -2.683        -12.732
  -2.681        -12.731
  -2.679        -12.731
  -2.677        -12.731
  -2.674        -12.730
  -2.672        -12.730
  -2.670        -12.730
  -2.668        -12.729
  -2.666        -12.729
  -2.663        -12.729
  -2.661        -12.728
  -2.659        -12.728
  -2.657        -12.728
  -2.655        -12.728
  -2.653        -12.728
  -2.650        -12.728
  -2.648        -12.728
  -2.646        -12.727
  -2.644        -12.728
  -2.642        -12.727
  -2.640        -12.727
  -2.637        -12.727
  -2.635        -12.728
  -2.633        -12.728
  -2.631        -12.728
  -2.629        -12.728
  -2.626        -12.728
  -2.624        -12.728
  -2.622        -12.729
  -2.620        -12.729
  -2.618        -12.729
  -2.616        -12.729
  -2.614        -12.730
  -2.611        -12.730
  -2.609        -12.731
  -2.607        -12.731
  -2.605        -12.731
  -2.603        -12.732
  -2.600        -12.732
  -2.598        -12.733
  -2.596        -12.734
  -2.594        -12.734
  -2.592        -12.735
  -2.590        -12.736
  -2.587        -12.736
  -2.585        -12.737
  -2.583        -12.738
  -2.581        -12.739
  -2.579        -12.740
  -2.577        -12.740
  -2.574        -12.741
  -2.572        -12.742
  -2.570        -12.743
  -2.568        -12.744
  -2.566        -12.745
  -2.564        -12.746
  -2.561        -12.748
  -2.559        -12.749
  -2.557        -12.750
  -2.555        -12.751
  -2.553        -12.752
  -2.551        -12.753
  -2.548        -12.755
  -2.546        -12.756
  -2.544        -12.757
  -2.542        -12.759
  -2.540        -12.760
  -2.538        -12.762
  -2.535        -12.764
  -2.533        -12.765
  -2.531        -12.766
  -2.529        -12.768
  -2.527        -12.770
  -2.525        -12.771
  -2.522        -12.773
  -2.520        -12.775
  -2.518        -12.777
  -2.516        -12.779
  -2.514        -12.781
  -2.511        -12.783
  -2.509        -12.784
  -2.507        -12.787
  -2.505        -12.789
  -2.503        -12.791
  -2.501        -12.793
  -2.498        -12.795
  -2.496        -12.797
  -2.494        -12.799
  -2.492        -12.802
  -2.490        -12.804
  -2.488        -12.806
  -2.485        -12.809
  -2.483        -12.811
  -2.481        -12.814
  -2.479        -12.816
  -2.477        -12.819
  -2.475        -12.821
  -2.472        -12.824
  -2.470        -12.827
  -2.468        -12.830
  -2.466        -12.832
  -2.464        -12.835
  -2.462        -12.838
  -2.459        -12.841
  -2.457        -12.844
  -2.455        -12.847
  -2.453        -12.850
  -2.451        -12.853
  -2.448        -12.856
  -2.446        -12.860
  -2.444        -12.863
  -2.442        -12.866
  -2.440        -12.869
  -2.438        -12.873
  -2.435        -12.876
  -2.433        -12.880
  -2.431        -12.883
  -2.429        -12.887
  -2.427        -12.891
  -2.425        -12.894
  -2.422        -12.898
  -2.420        -12.902
  -2.418        -12.906
  -2.416        -12.909
  -2.414        -12.913
  -2.412        -12.917
  -2.409        -12.921
  -2.407        -12.925
  -2.405        -12.929
  -2.403        -12.934
  -2.401        -12.938
  -2.398        -12.942
  -2.396        -12.946
  -2.394        -12.951
  -2.392        -12.955
  -2.390        -12.960
  -2.388        -12.964
  -2.386        -12.969
  -2.383        -12.974
  -2.381        -12.978
  -2.379        -12.983
  -2.377        -12.988
  -2.375        -12.993
  -2.372        -12.998
  -2.370        -13.002
  -2.368        -13.008
  -2.366        -13.013
  -2.364        -13.018
  -2.362        -13.023
  -2.359        -13.028
  -2.357        -13.034
  -2.355        -13.039
  -2.353        -13.044
  -2.351        -13.050
  -2.349        -13.056
  -2.346        -13.061
  -2.344        -13.067
  -2.342        -13.072
  -2.340        -13.078
  -2.338        -13.084
  -2.336        -13.090
  -2.333        -13.096
  -2.331        -13.102
  -2.329        -13.108
  -2.327        -13.114
  -2.325        -13.121
  -2.323        -13.127
  -2.320        -13.133
  -2.318        -13.140
  -2.316        -13.146
  -2.314        -13.153
  -2.312        -13.159
  -2.309        -13.166
  -2.307        -13.172
  -2.305        -13.179
  -2.303        -13.186
  -2.301        -13.193
  -2.299        -13.200
  -2.297        -13.207
  -2.294        -13.214
  -2.292        -13.221
  -2.290        -13.229
  -2.288        -13.236
  -2.286        -13.243
  -2.283        -13.251
  -2.281        -13.258
  -2.279        -13.266
  -2.277        -13.274
  -2.275        -13.281
  -2.273        -13.289
  -2.270        -13.297
  -2.268        -13.305
  -2.266        -13.313
  -2.264        -13.321
  -2.262        -13.329
  -2.260        -13.338
  -2.257        -13.346
  -2.255        -13.354
  -2.253        -13.363
  -2.251        -13.371
  -2.249        -13.380
  -2.247        -13.389
  -2.244        -13.398
  -2.242        -13.406
  -2.240        -13.415
  -2.238        -13.424
  -2.236        -13.433
  -2.234        -13.443
  -2.231        -13.452
  -2.229        -13.461
  -2.227        -13.470
  -2.225        -13.480
  -2.223        -13.489
  -2.220        -13.499
  -2.218        -13.509
  -2.216        -13.519
  -2.214        -13.529
  -2.212        -13.538
  -2.210        -13.549
  -2.207        -13.559
  -2.205        -13.569
  -2.203        -13.579
  -2.201        -13.589
  -2.199        -13.600
  -2.197        -13.611
  -2.194        -13.621
  -2.192        -13.632
  -2.190        -13.643
  -2.188        -13.654
  -2.186        -13.665
  -2.184        -13.676
  -2.181        -13.687
  -2.179        -13.698
  -2.177        -13.709
  -2.175        -13.721
  -2.173        -13.732
  -2.171        -13.744
  -2.168        -13.755
  -2.166        -13.767
  -2.164        -13.779
  -2.162        -13.791
  -2.160        -13.803
  -2.158        -13.815
  -2.155        -13.827
  -2.153        -13.840
  -2.151        -13.852
  -2.149        -13.865
  -2.147        -13.877
  -2.145        -13.890
  -2.142        -13.903
  -2.140        -13.916
  -2.138        -13.929
  -2.136        -13.942
  -2.134        -13.955
  -2.131        -13.968
  -2.129        -13.982
  -2.127        -13.995
  -2.125        -14.009
  -2.123        -14.023
  -2.121        -14.036
  -2.118        -14.050
  -2.116        -14.064
  -2.114        -14.078
  -2.112        -14.093
  -2.110        -14.107
  -2.108        -14.121
  -2.105        -14.136
  -2.103        -14.150
  -2.101        -14.165
  -2.099        -14.180
  -2.097        -14.195
  -2.095        -14.210
  -2.092        -14.225
  -2.090        -14.240
  -2.088        -14.256
  -2.086        -14.271
  -2.084        -14.287
  -2.082        -14.302
  -2.079        -14.318
  -2.077        -14.334
  -2.075        -14.350
  -2.073        -14.366
  -2.071        -14.383
  -2.069        -14.399
  -2.066        -14.416
  -2.064        -14.432
  -2.062        -14.449
  -2.060        -14.466
  -2.058        -14.483
  -2.056        -14.500
  -2.053        -14.517
  -2.051        -14.534
  -2.049        -14.552
  -2.047        -14.569
  -2.045        -14.587
  -2.043        -14.605
  -2.040        -14.623
  -2.038        -14.641
  -2.036        -14.659
  -2.034        -14.677
  -2.032        -14.696
  -2.029        -14.714
  -2.027        -14.733
  -2.025        -14.752
  -2.023        -14.771
  -2.021        -14.790
  -2.019        -14.809
  -2.016        -14.828
  -2.014        -14.848
  -2.012        -14.867
  -2.010        -14.887
  -2.008        -14.907
  -2.006        -14.927
  -2.003        -14.947
  -2.001        -14.967
  -1.999        -14.987
  -1.997        -15.008
  -1.995        -15.028
  -1.993        -15.049
  -1.990        -15.070
  -1.988        -15.091
  -1.986        -15.112
  -1.984        -15.133
  -1.982        -15.155
  -1.980        -15.177
  -1.977        -15.198
  -1.975        -15.220
  -1.973        -15.242
  -1.971        -15.264
  -1.969        -15.287
  -1.967        -15.309
  -1.964        -15.332
  -1.962        -15.354
  -1.960        -15.377
  -1.958        -15.400
  -1.956        -15.424
  -1.953        -15.447
  -1.951        -15.470
  -1.949        -15.494
  -1.947        -15.517
  -1.945        -15.541
  -1.943        -15.566
  -1.940        -15.590
  -1.938        -15.614
  -1.936        -15.639
  -1.934        -15.663
  -1.932        -15.688
  -1.930        -15.713
  -1.927        -15.738
  -1.925        -15.764
  -1.923        -15.789
  -1.921        -15.815
  -1.919        -15.840
  -1.917        -15.866
  -1.914        -15.893
  -1.912        -15.919
  -1.910        -15.945
  -1.908        -15.972
  -1.906        -15.999
  -1.904        -16.025
  -1.901        -16.053
  -1.899        -16.080
  -1.897        -16.107
  -1.895        -16.135
  -1.893        -16.162
  -1.891        -16.190
  -1.888        -16.218
  -1.886        -16.247
  -1.884        -16.275
  -1.882        -16.304
  -1.880        -16.333
  -1.877        -16.361
  -1.875        -16.390
  -1.873        -16.420
  -1.871        -16.449
  -1.869        -16.479
  -1.867        -16.509
  -1.864        -16.538
  -1.862        -16.568
  -1.860        -16.599
  -1.858        -16.629
  -1.856        -16.660
  -1.853        -16.691
  -1.851        -16.722
  -1.849        -16.752
  -1.847        -16.784
  -1.845        -16.815
  -1.843        -16.847
  -1.841        -16.879
  -1.838        -16.911
  -1.836        -16.943
  -1.834        -16.975
  -1.832        -17.007
  -1.830        -17.040
  -1.828        -17.073
  -1.825        -17.105
  -1.823        -17.139
  -1.821        -17.171
  -1.819        -17.205
  -1.817        -17.238
  -1.815        -17.272
  -1.812        -17.305
  -1.810        -17.339
  -1.808        -17.373
  -1.806        -17.407
  -1.804        -17.440
  -1.801        -17.475
  -1.799        -17.509
  -1.797        -17.543
  -1.795        -17.577
  -1.793        -17.611
  -1.791        -17.645
  -1.788        -17.679
  -1.786        -17.713
  -1.784        -17.748
  -1.782        -17.782
  -1.780        -17.815
  -1.777        -17.849
  -1.775        -17.883
  -1.773        -17.916
  -1.771        -17.949
  -1.769        -17.983
  -1.767        -18.015
  -1.764        -18.048
  -1.763        -18.079
  -1.760        -18.111
  -1.758        -18.142
  -1.756        -18.173
  -1.754        -18.203
  -1.752        -18.233
  -1.749        -18.262
  -1.747        -18.290
  -1.745        -18.318
  -1.743        -18.345
  -1.741        -18.371
  -1.739        -18.396
  -1.736        -18.421
  -1.734        -18.445
  -1.732        -18.467
  -1.730        -18.489
  -1.728        -18.510
  -1.726        -18.530
  -1.723        -18.549
  -1.721        -18.567
  -1.719        -18.584
  -1.717        -18.601
  -1.715        -18.616
  -1.713        -18.631
  -1.710        -18.644
  -1.708        -18.657
  -1.706        -18.669
  -1.704        -18.680
  -1.702        -18.690
  -1.699        -18.700
  -1.697        -18.709
  -1.695        -18.717
  -1.693        -18.725
  -1.691        -18.732
  -1.689        -18.738
  -1.686        -18.744
  -1.684        -18.750
  -1.682        -18.755
  -1.680        -18.760
  -1.678        -18.764
  -1.675        -18.768
  -1.673        -18.772
  -1.671        -18.776
  -1.669        -18.779
  -1.667        -18.781
  -1.665        -18.785
  -1.663        -18.787
  -1.660        -18.789
  -1.658        -18.791
  -1.656        -18.794
  -1.654        -18.796
  -1.652        -18.797
  -1.650        -18.799
  -1.647        -18.801
  -1.645        -18.802
  -1.643        -18.804
  -1.641        -18.805
  -1.639        -18.807
  -1.637        -18.808
  -1.634        -18.809
  -1.632        -18.810
  -1.630        -18.812
  -1.628        -18.813
  -1.626        -18.814
  -1.623        -18.815
  -1.621        -18.816
  -1.619        -18.817
  -1.617        -18.818
  -1.615        -18.819
  -1.613        -18.820
  -1.611        -18.821
  -1.608        -18.822
  -1.606        -18.823
  -1.604        -18.824
  -1.602        -18.824
  -1.600        -18.825
  -1.597        -18.826
  -1.595        -18.827
  -1.593        -18.828
  -1.591        -18.829
  -1.589        -18.830
  -1.587        -18.831
  -1.584        -18.832
  -1.582        -18.832
  -1.580        -18.833
  -1.578        -18.834
  -1.576        -18.835
  -1.573        -18.836
  -1.571        -18.837
  -1.569        -18.838
  -1.567        -18.838
  -1.565        -18.839
  -1.563        -18.840
  -1.561        -18.841
  -1.558        -18.842
  -1.556        -18.843
  -1.554        -18.843
  -1.552        -18.844
  -1.550        -18.845
  -1.547        -18.846
  -1.545        -18.847
  -1.543        -18.847
  -1.541        -18.848
  -1.539        -18.849
  -1.537        -18.850
  -1.534        -18.851
  -1.532        -18.852
  -1.530        -18.853
  -1.528        -18.853
  -1.526        -18.854
  -1.524        -18.855
  -1.522        -18.856
  -1.519        -18.857
  -1.517        -18.858
  -1.515        -18.858
  -1.513        -18.859
  -1.511        -18.860
  -1.508        -18.861
  -1.506        -18.862
  -1.504        -18.863
  -1.502        -18.864
  -1.500        -18.864
  -1.498        -18.865
  -1.495        -18.866
  -1.493        -18.867
  -1.491        -18.867
  -1.489        -18.868
  -1.487        -18.869
  -1.484        -18.870
  -1.482        -18.871
  -1.480        -18.872
  -1.478        -18.873
  -1.476        -18.874
  -1.474        -18.874
  -1.472        -18.875
  -1.469        -18.876
  -1.467        -18.877
  -1.465        -18.878
  -1.463        -18.878
  -1.461        -18.879
  -1.458        -18.880
  -1.456        -18.881
  -1.454        -18.882
  -1.452        -18.882
  -1.450        -18.883
  -1.448        -18.884
  -1.445        -18.885
  -1.443        -18.886
  -1.441        -18.887
  -1.439        -18.888
  -1.437        -18.888
  -1.435        -18.889
  -1.432        -18.890
  -1.430        -18.891
  -1.428        -18.892
  -1.426        -18.892
  -1.424        -18.893
  -1.422        -18.894
  -1.419        -18.895
  -1.417        -18.896
  -1.415        -18.896
  -1.413        -18.897
  -1.411        -18.898
  -1.409        -18.899
  -1.406        -18.900
  -1.404        -18.901
  -1.402        -18.901
  -1.400        -18.902
  -1.398        -18.903
  -1.396        -18.904
  -1.393        -18.905
  -1.391        -18.906
  -1.389        -18.906
  -1.387        -18.907
  -1.385        -18.908
  -1.383        -18.909
  -1.380        -18.910
  -1.378        -18.911
  -1.376        -18.911
  -1.374        -18.912
  -1.372        -18.913
  -1.370        -18.914
  -1.367        -18.915
  -1.365        -18.915
  -1.363        -18.916
  -1.361        -18.917
  -1.359        -18.918
  -1.356        -18.919
  -1.354        -18.919
  -1.352        -18.920
  -1.350        -18.921
  -1.348        -18.922
  -1.346        -18.923
  -1.343        -18.923
  -1.341        -18.924
  -1.339        -18.925
  -1.337        -18.926
  -1.335        -18.927
  -1.333        -18.928
  -1.330        -18.929
  -1.328        -18.929
  -1.326        -18.930
  -1.324        -18.931
  -1.322        -18.932
  -1.320        -18.933
  -1.317        -18.934
  -1.315        -18.935
  -1.313        -18.935
  -1.311        -18.936
  -1.309        -18.937
  -1.307        -18.938
  -1.304        -18.939
  -1.302        -18.939
  -1.300        -18.940
  -1.298        -18.941
  -1.296        -18.942
  -1.293        -18.943
  -1.291        -18.944
  -1.289        -18.944
  -1.287        -18.945
  -1.285        -18.946
  -1.283        -18.947
  -1.280        -18.948
  -1.278        -18.949
  -1.276        -18.949
  -1.274        -18.950
  -1.272        -18.951
  -1.270        -18.952
  -1.267        -18.953
  -1.265        -18.953
  -1.263        -18.954
  -1.261        -18.955
  -1.259        -18.956
  -1.257        -18.957
  -1.254        -18.958
  -1.252        -18.959
  -1.250        -18.959
  -1.248        -18.960
  -1.246        -18.961
  -1.243        -18.962
  -1.241        -18.963
  -1.239        -18.964
  -1.237        -18.965
  -1.235        -18.966
  -1.233        -18.966
  -1.231        -18.967
  -1.228        -18.968
  -1.226        -18.969
  -1.224        -18.970
  -1.222        -18.971
  -1.220        -18.972
  -1.217        -18.973
  -1.215        -18.974
  -1.213        -18.974
  -1.211        -18.975
  -1.209        -18.976
  -1.207        -18.977
  -1.204        -18.978
  -1.202        -18.979
  -1.200        -18.980
  -1.198        -18.981
  -1.196        -18.982
  -1.194        -18.983
  -1.191        -18.984
  -1.189        -18.984
  -1.187        -18.985
  -1.185        -18.986
  -1.183        -18.987
  -1.181        -18.988
  -1.178        -18.989
  -1.176        -18.990
  -1.174        -18.991
  -1.172        -18.992
  -1.170        -18.993
  -1.168        -18.994
  -1.165        -18.995
  -1.163        -18.996
  -1.161        -18.997
  -1.159        -18.998
  -1.157        -18.999
  -1.155        -19.000
  -1.152        -19.001
  -1.150        -19.002
  -1.148        -19.003
  -1.146        -19.004
  -1.144        -19.006
  -1.142        -19.006
  -1.139        -19.008
  -1.137        -19.009
  -1.135        -19.010
  -1.133        -19.011
  -1.131        -19.012
  -1.129        -19.013
  -1.126        -19.014
  -1.124        -19.016
  -1.122        -19.017
  -1.120        -19.018
  -1.118        -19.019
  -1.115        -19.020
  -1.113        -19.021
  -1.111        -19.022
  -1.109        -19.024
  -1.107        -19.025
  -1.105        -19.026
  -1.102        -19.027
  -1.100        -19.029
  -1.098        -19.030
  -1.096        -19.031
  -1.094        -19.033
  -1.092        -19.034
  -1.089        -19.035
  -1.087        -19.037
  -1.085        -19.038
  -1.083        -19.039
  -1.081        -19.041
  -1.079        -19.042
  -1.076        -19.044
  -1.074        -19.045
  -1.072        -19.046
  -1.070        -19.048
  -1.068        -19.049
  -1.066        -19.051
  -1.063        -19.053
  -1.061        -19.054
  -1.059        -19.056
  -1.057        -19.057
  -1.055        -19.059
  -1.052        -19.060
  -1.050        -19.062
  -1.048        -19.064
  -1.046        -19.065
  -1.044        -19.067
  -1.042        -19.069
  -1.039        -19.071
  -1.037        -19.072
  -1.035        -19.074
  -1.033        -19.076
  -1.031        -19.078
  -1.029        -19.080
  -1.026        -19.082
  -1.024        -19.084
  -1.022        -19.085
  -1.020        -19.087
  -1.018        -19.089
  -1.016        -19.091
  -1.013        -19.093
  -1.011        -19.095
  -1.009        -19.097
  -1.007        -19.099
  -1.005        -19.102
  -1.003        -19.104
  -1.000        -19.106
  -0.998        -19.108
  -0.996        -19.110
  -0.994        -19.112
  -0.992        -19.114
  -0.990        -19.116
  -0.987        -19.118
  -0.985        -19.120
  -0.983        -19.122
  -0.981        -19.124
  -0.979        -19.126
  -0.977        -19.128
  -0.974        -19.130
  -0.972        -19.133
  -0.970        -19.135
  -0.968        -19.137
  -0.966        -19.139
  -0.963        -19.141
  -0.961        -19.143
  -0.959        -19.145
  -0.957        -19.146
  -0.955        -19.148
  -0.953        -19.150
  -0.950        -19.152
  -0.948        -19.154
  -0.946        -19.156
  -0.944        -19.158
  -0.942        -19.160
  -0.940        -19.162
  -0.937        -19.163
  -0.935        -19.165
  -0.933        -19.167
  -0.931        -19.169
  -0.929        -19.171
  -0.927        -19.172
  -0.924        -19.174
  -0.922        -19.176
  -0.920        -19.178
  -0.918        -19.179
  -0.916        -19.181
  -0.914        -19.183
  -0.911        -19.184
  -0.909        -19.186
  -0.907        -19.188
  -0.905        -19.189
  -0.903        -19.191
  -0.900        -19.192
  -0.898        -19.194
  -0.896        -19.195
  -0.894        -19.197
  -0.892        -19.198
  -0.890        -19.200
  -0.887        -19.201
  -0.885        -19.203
  -0.883        -19.204
  -0.881        -19.206
  -0.879        -19.207
  -0.877        -19.209
  -0.874        -19.210
  -0.872        -19.211
  -0.870        -19.213
  -0.868        -19.214
  -0.866        -19.216
  -0.864        -19.217
  -0.862        -19.218
  -0.859        -19.220
  -0.857        -19.221
  -0.855        -19.222
  -0.853        -19.223
  -0.851        -19.224
  -0.848        -19.226
  -0.846        -19.227
  -0.844        -19.228
  -0.842        -19.229
  -0.840        -19.230
  -0.838        -19.231
  -0.835        -19.233
  -0.833        -19.233
  -0.831        -19.235
  -0.829        -19.236
  -0.827        -19.237
  -0.825        -19.238
  -0.822        -19.239
  -0.820        -19.240
  -0.818        -19.241
  -0.816        -19.242
  -0.814        -19.243
  -0.812        -19.244
  -0.809        -19.245
  -0.807        -19.246
  -0.805        -19.246
  -0.803        -19.247
  -0.801        -19.248
  -0.799        -19.249
  -0.796        -19.250
  -0.794        -19.251
  -0.792        -19.251
  -0.790        -19.252
  -0.788        -19.253
  -0.785        -19.254
  -0.783        -19.255
  -0.781        -19.255
  -0.779        -19.256
  -0.777        -19.256
  -0.774        -19.257
  -0.772        -19.258
  -0.770        -19.258
  -0.768        -19.258
  -0.766        -19.259
  -0.764        -19.260
  -0.762        -19.260
  -0.759        -19.261
  -0.757        -19.261
  -0.755        -19.261
  -0.753        -19.261
  -0.751        -19.262
  -0.748        -19.262
  -0.746        -19.262
  -0.744        -19.263
  -0.742        -19.263
  -0.740        -19.263
  -0.738        -19.263
  -0.736        -19.263
  -0.733        -19.263
  -0.731        -19.264
  -0.729        -19.263
  -0.727        -19.263
  -0.725        -19.263
  -0.723        -19.263
  -0.720        -19.264
  -0.718        -19.263
  -0.716        -19.263
  -0.714        -19.263
  -0.712        -19.263
  -0.709        -19.263
  -0.707        -19.262
  -0.705        -19.262
  -0.703        -19.262
  -0.701        -19.262
  -0.699        -19.262
  -0.697        -19.261
  -0.694        -19.261
  -0.692        -19.260
  -0.690        -19.260
  -0.688        -19.260
  -0.685        -19.259
  -0.683        -19.259
  -0.681        -19.258
  -0.679        -19.258
  -0.677        -19.257
  -0.675        -19.257
  -0.673        -19.256
  -0.670        -19.255
  -0.668        -19.255
  -0.666        -19.254
  -0.664        -19.254
  -0.662        -19.253
  -0.659        -19.252
  -0.657        -19.252
  -0.655        -19.251
  -0.653        -19.250
  -0.651        -19.249
  -0.649        -19.248
  -0.647        -19.247
  -0.644        -19.246
  -0.642        -19.245
  -0.640        -19.244
  -0.638        -19.244
  -0.636        -19.243
  -0.633        -19.242
  -0.631        -19.241
  -0.629        -19.240
  -0.627        -19.238
  -0.625        -19.237
  -0.623        -19.236
  -0.621        -19.235
  -0.618        -19.234
  -0.616        -19.233
  -0.614        -19.231
  -0.612        -19.230
  -0.610        -19.229
  -0.608        -19.228
  -0.605        -19.226
  -0.603        -19.225
  -0.601        -19.224
  -0.599        -19.223
  -0.596        -19.221
  -0.594        -19.220
  -0.592        -19.219
  -0.590        -19.217
  -0.588        -19.216
  -0.586        -19.214
  -0.584        -19.213
  -0.581        -19.212
  -0.579        -19.210
  -0.577        -19.209
  -0.575        -19.207
  -0.573        -19.206
  -0.571        -19.205
  -0.568        -19.203
  -0.566        -19.202
  -0.564        -19.201
  -0.562        -19.200
  -0.560        -19.198
  -0.557        -19.197
  -0.555        -19.196
  -0.553        -19.194
  -0.551        -19.193
  -0.549        -19.192
  -0.547        -19.190
  -0.544        -19.189
  -0.542        -19.188
  -0.540        -19.187
  -0.538        -19.185
  -0.536        -19.184
  -0.534        -19.183
  -0.531        -19.181
  -0.529        -19.180
  -0.527        -19.179
  -0.525        -19.177
  -0.523        -19.176
  -0.521        -19.175
  -0.518        -19.174
  -0.516        -19.172
  -0.514        -19.171
  -0.512        -19.170
  -0.510        -19.168
  -0.507        -19.167
  -0.505        -19.166
  -0.503        -19.164
  -0.501        -19.163
  -0.499        -19.162
  -0.497        -19.160
  -0.495        -19.159
  -0.492        -19.158
  -0.490        -19.156
  -0.488        -19.155
  -0.486        -19.154
  -0.484        -19.152
  -0.482        -19.151
  -0.479        -19.149
  -0.477        -19.148
  -0.475        -19.147
  -0.473        -19.146
  -0.471        -19.144
  -0.468        -19.143
  -0.466        -19.142
  -0.464        -19.140
  -0.462        -19.139
  -0.460        -19.137
  -0.458        -19.136
  -0.455        -19.135
  -0.453        -19.133
  -0.451        -19.132
  -0.449        -19.131
  -0.447        -19.129
  -0.445        -19.128
  -0.442        -19.127
  -0.440        -19.125
  -0.438        -19.124
  -0.436        -19.123
  -0.434        -19.121
  -0.432        -19.120
  -0.429        -19.119
  -0.427        -19.117
  -0.425        -19.116
  -0.423        -19.115
  -0.421        -19.113
  -0.419        -19.112
  -0.416        -19.111
  -0.414        -19.109
  -0.412        -19.108
  -0.410        -19.107
  -0.408        -19.105
  -0.405        -19.104
  -0.403        -19.103
  -0.401        -19.101
  -0.399        -19.100
  -0.397        -19.099
  -0.395        -19.097
  -0.392        -19.096
  -0.390        -19.095
  -0.388        -19.094
  -0.386        -19.092
  -0.384        -19.091
  -0.382        -19.090
  -0.379        -19.088
  -0.377        -19.087
  -0.375        -19.086
  -0.373        -19.084
  -0.371        -19.083
  -0.369        -19.081
  -0.366        -19.080
  -0.364        -19.079
  -0.362        -19.078
  -0.360        -19.076
  -0.358        -19.075
  -0.356        -19.073
  -0.353        -19.072
  -0.351        -19.071
  -0.349        -19.069
  -0.347        -19.068
  -0.345        -19.067
  -0.343        -19.065
  -0.340        -19.064
  -0.338        -19.062
  -0.336        -19.061
  -0.334        -19.060
  -0.332        -19.058
  -0.330        -19.057
  -0.327        -19.056
  -0.325        -19.054
  -0.323        -19.053
  -0.321        -19.052
  -0.319        -19.050
  -0.316        -19.049
  -0.314        -19.048
  -0.312        -19.047
  -0.310        -19.045
  -0.308        -19.044
  -0.306        -19.043
  -0.303        -19.042
  -0.301        -19.041
  -0.299        -19.040
  -0.297        -19.039
  -0.295        -19.038
  -0.293        -19.037
  -0.290        -19.036
  -0.288        -19.035
  -0.286        -19.034
  -0.284        -19.033
  -0.282        -19.032
  -0.280        -19.031
  -0.277        -19.031
  -0.275        -19.030
  -0.273        -19.029
  -0.271        -19.029
  -0.269        -19.028
  -0.267        -19.027
  -0.264        -19.027
  -0.262        -19.026
  -0.260        -19.025
  -0.258        -19.025
  -0.256        -19.024
  -0.253        -19.024
  -0.251        -19.023
  -0.249        -19.022
  -0.247        -19.022
  -0.245        -19.021
  -0.243        -19.021
  -0.241        -19.020
  -0.238        -19.019
  -0.236        -19.019
  -0.234        -19.019
  -0.232        -19.018
  -0.230        -19.018
  -0.227        -19.018
  -0.225        -19.017
  -0.223        -19.017
  -0.221        -19.016
  -0.219        -19.016
  -0.217        -19.016
  -0.214        -19.015
  -0.212        -19.015
  -0.210        -19.015
  -0.208        -19.015
  -0.206        -19.014
  -0.204        -19.014
  -0.201        -19.014
  -0.199        -19.013
  -0.197        -19.013
  -0.195        -19.013
  -0.193        -19.013
  -0.191        -19.013
  -0.188        -19.013
  -0.186        -19.013
  -0.184        -19.013
  -0.182        -19.013
  -0.180        -19.013
  -0.178        -19.013
  -0.175        -19.013
  -0.173        -19.013
  -0.171        -19.013
  -0.169        -19.013
  -0.167        -19.013
  -0.164        -19.014
  -0.162        -19.014
  -0.160        -19.014
  -0.158        -19.014
  -0.156        -19.014
  -0.154        -19.015
  -0.151        -19.015
  -0.149        -19.015
  -0.147        -19.016
  -0.145        -19.016
  -0.143        -19.016
  -0.141        -19.017
  -0.138        -19.017
  -0.136        -19.017
  -0.134        -19.018
  -0.132        -19.018
  -0.130        -19.018
  -0.128        -19.019
  -0.125        -19.019
  -0.123        -19.020
  -0.121        -19.020
  -0.119        -19.020
  -0.117        -19.021
  -0.115        -19.021
  -0.112        -19.021
  -0.110        -19.021
  -0.108        -19.022
  -0.106        -19.022
  -0.104        -19.022
  -0.102        -19.022
  -0.099        -19.023
  -0.097        -19.023
  -0.095        -19.023
  -0.093        -19.023
  -0.091        -19.023
  -0.089        -19.024
  -0.086        -19.024
  -0.084        -19.024
  -0.082        -19.024
  -0.080        -19.024
  -0.078        -19.024
  -0.075        -19.024
  -0.073        -19.024
  -0.071        -19.025
  -0.069        -19.025
  -0.067        -19.025
  -0.065        -19.025
  -0.063        -19.025
  -0.060        -19.025
  -0.058        -19.025
  -0.056        -19.025
  -0.054        -19.025
  -0.052        -19.025
  -0.049        -19.025
  -0.047        -19.026
  -0.045        -19.026
  -0.043        -19.026
  -0.041        -19.026
  -0.039        -19.026
  -0.036        -19.026
  -0.034        -19.026
  -0.032        -19.026
  -0.030        -19.026
  -0.028        -19.026
  -0.026        -19.027
  -0.023        -19.027
  -0.021        -19.027
  -0.019        -19.027
  -0.017        -19.027
  -0.015        -19.027
  -0.013        -19.027
  -0.010        -19.027
  -0.008        -19.027
  -0.006        -19.027
  -0.004        -19.027
  -0.002        -19.027
   0.000        -19.027
   0.003        -19.027
   0.005        -19.027
   0.007        -19.028
   0.009        -19.028
   0.011        -19.028
   0.013        -19.028
   0.016        -19.028
   0.018        -19.028
   0.020        -19.028
   0.022        -19.028
   0.024        -19.029
   0.027        -19.029
   0.029        -19.029
   0.031        -19.029
   0.033        -19.029
   0.035        -19.030
   0.037        -19.030
   0.040        -19.030
   0.042        -19.031
   0.044        -19.031
   0.046        -19.032
   0.048        -19.032
   0.050        -19.032
   0.053        -19.033
   0.055        -19.033
   0.057        -19.034
   0.059        -19.034
   0.061        -19.035
   0.063        -19.035
   0.066        -19.036
   0.068        -19.036
   0.070        -19.037
   0.072        -19.037
   0.074        -19.037
   0.076        -19.038
   0.079        -19.038
   0.081        -19.039
   0.083        -19.039
   0.085        -19.039
   0.087        -19.040
   0.089        -19.040
   0.092        -19.040
   0.094        -19.041
   0.096        -19.041
   0.098        -19.041
   0.100        -19.042
   0.103        -19.042
   0.105        -19.043
   0.107        -19.043
   0.109        -19.044
   0.111        -19.044
   0.113        -19.045
   0.116        -19.045
   0.118        -19.046
   0.120        -19.046
   0.122        -19.046
   0.124        -19.047
   0.126        -19.047
   0.128        -19.048
   0.131        -19.048
   0.133        -19.049
   0.135        -19.049
   0.137        -19.050
   0.139        -19.050
   0.142        -19.051
   0.144        -19.051
   0.146        -19.051
   0.148        -19.052
   0.150        -19.052
   0.153        -19.053
   0.155        -19.053
   0.157        -19.053
   0.159        -19.054
   0.161        -19.054
   0.163        -19.055
   0.165        -19.055
   0.168        -19.056
   0.170        -19.056
   0.172        -19.056
   0.174        -19.057
   0.176        -19.057
   0.178        -19.058
   0.181        -19.058
   0.183        -19.059
   0.185        -19.059
   0.187        -19.060
   0.189        -19.060
   0.192        -19.061
   0.194        -19.061
   0.196        -19.062
   0.198        -19.062
   0.200        -19.063
   0.202        -19.063
   0.205        -19.064
   0.207        -19.064
   0.209        -19.064
   0.211        -19.065
   0.213        -19.066
   0.215        -19.066
   0.218        -19.067
   0.220        -19.067
   0.222        -19.068
   0.224        -19.068
   0.226        -19.069
   0.229        -19.069
   0.231        -19.070
   0.233        -19.071
   0.235        -19.071
   0.237        -19.071
   0.239        -19.072
   0.241        -19.072
   0.244        -19.073
   0.246        -19.074
   0.248        -19.075
   0.250        -19.075
   0.252        -19.076
   0.254        -19.076
   0.257        -19.077
   0.259        -19.077
   0.261        -19.078
   0.263        -19.079
   0.265        -19.079
   0.267        -19.080
   0.270        -19.081
   0.272        -19.081
   0.274        -19.082
   0.276        -19.083
   0.278        -19.083
   0.281        -19.084
   0.283        -19.085
   0.285        -19.085
   0.287        -19.086
   0.289        -19.087
   0.291        -19.088
   0.293        -19.088
   0.296        -19.089
   0.298        -19.090
   0.300        -19.091
   0.302        -19.091
   0.305        -19.092
   0.307        -19.093
   0.309        -19.094
   0.311        -19.095
   0.313        -19.096
   0.315        -19.097
   0.318        -19.097
   0.320        -19.098
   0.322        -19.099
   0.324        -19.100
   0.326        -19.101
   0.328        -19.102
   0.330        -19.103
   0.333        -19.104
   0.335        -19.105
   0.337        -19.106
   0.339        -19.107
   0.341        -19.107
   0.344        -19.108
   0.346        -19.109
   0.348        -19.110
   0.350        -19.111
   0.352        -19.112
   0.354        -19.113
   0.356        -19.114
   0.359        -19.115
   0.361        -19.116
   0.363        -19.117
   0.365        -19.118
   0.367        -19.119
   0.369        -19.120
   0.372        -19.121
   0.374        -19.122
   0.376        -19.123
   0.378        -19.124
   0.380        -19.125
   0.383        -19.126
   0.385        -19.127
   0.387        -19.128
   0.389        -19.129
   0.391        -19.131
   0.393        -19.132
   0.396        -19.133
   0.398        -19.134
   0.400        -19.135
   0.402        -19.137
   0.404        -19.138
   0.406        -19.139
   0.409        -19.141
   0.411        -19.142
   0.413        -19.144
   0.415        -19.145
   0.417        -19.147
   0.420        -19.148
   0.422        -19.150
   0.424        -19.151
   0.426        -19.153
   0.428        -19.154
   0.430        -19.156
   0.432        -19.157
   0.435        -19.159
   0.437        -19.161
   0.439        -19.163
   0.441        -19.164
   0.443        -19.166
   0.446        -19.168
   0.448        -19.169
   0.450        -19.171
   0.452        -19.173
   0.454        -19.175
   0.456        -19.177
   0.459        -19.179
   0.461        -19.181
   0.463        -19.183
   0.465        -19.185
   0.467        -19.187
   0.469        -19.189
   0.472        -19.191
   0.474        -19.192
   0.476        -19.194
   0.478        -19.196
   0.480        -19.198
   0.482        -19.199
   0.485        -19.201
   0.487        -19.203
   0.489        -19.204
   0.491        -19.205
   0.493        -19.206
   0.495        -19.206
   0.498        -19.207
   0.500        -19.207
   0.502        -19.208
   0.504        -19.208
   0.506        -19.208
   0.510        -19.209
   0.512        -19.209
   0.513        -19.209
   0.515        -19.208
   0.517        -19.208
   0.519        -19.208
   0.522        -19.207
   0.524        -19.207
   0.526        -19.207
   0.528        -19.207
   0.530        -19.206
   0.532        -19.206
   0.535        -19.205
   0.537        -19.205
   0.539        -19.205
   0.541        -19.204
   0.543        -19.204
   0.545        -19.203
   0.548        -19.203
   0.550        -19.203
   0.552        -19.202
   0.554        -19.202
   0.556        -19.201
   0.558        -19.201
   0.561        -19.200
   0.563        -19.200
   0.565        -19.199
   0.567        -19.199
   0.569        -19.198
   0.572        -19.198
   0.574        -19.197
   0.576        -19.197
   0.578        -19.196
   0.580        -19.196
   0.582        -19.195
   0.585        -19.195
   0.587        -19.194
   0.589        -19.194
   0.591        -19.193
   0.593        -19.193
   0.595        -19.192
   0.598        -19.192
   0.600        -19.191
   0.602        -19.191
   0.604        -19.191
   0.606        -19.190
   0.608        -19.190
   0.611        -19.189
   0.613        -19.189
   0.615        -19.189
   0.617        -19.188
   0.619        -19.188
   0.621        -19.188
   0.624        -19.188
   0.626        -19.187
   0.628        -19.187
   0.630        -19.187
   0.632        -19.187
   0.634        -19.187
   0.637        -19.187
   0.639        -19.187
   0.641        -19.187
   0.643        -19.188
   0.645        -19.188
   0.647        -19.188
   0.650        -19.188
   0.652        -19.188
   0.654        -19.189
   0.656        -19.189
   0.658        -19.189
   0.660        -19.190
   0.663        -19.190
   0.665        -19.191
   0.667        -19.191
   0.669        -19.191
   0.671        -19.192
   0.673        -19.192
   0.676        -19.193
   0.678        -19.193
   0.680        -19.194
   0.682        -19.194
   0.684        -19.195
   0.687        -19.195
   0.689        -19.195
   0.691        -19.196
   0.693        -19.196
   0.695        -19.197
   0.697        -19.197
   0.700        -19.198
   0.702        -19.199
   0.704        -19.200
   0.706        -19.200
   0.708        -19.201
   0.710        -19.202
   0.713        -19.203
   0.715        -19.203
   0.717        -19.204
   0.719        -19.205
   0.721        -19.206
   0.723        -19.207
   0.726        -19.208
   0.728        -19.209
   0.730        -19.210
   0.732        -19.211
   0.734        -19.212
   0.736        -19.213
   0.739        -19.214
   0.741        -19.215
   0.743        -19.216
   0.745        -19.217
   0.747        -19.218
   0.750        -19.219
   0.752        -19.220
   0.754        -19.222
   0.756        -19.222
   0.758        -19.223
   0.760        -19.225
   0.762        -19.226
   0.765        -19.227
   0.767        -19.228
   0.769        -19.230
   0.771        -19.231
   0.773        -19.232
   0.776        -19.233
   0.778        -19.234
   0.780        -19.236
   0.782        -19.237
   0.784        -19.239
   0.786        -19.241
   0.789        -19.242
   0.791        -19.244
   0.793        -19.245
   0.795        -19.247
   0.797        -19.249
   0.799        -19.250
   0.802        -19.252
   0.804        -19.253
   0.806        -19.256
   0.808        -19.257
   0.810        -19.260
   0.812        -19.261
   0.815        -19.263
   0.817        -19.265
   0.819        -19.267
   0.821        -19.269
   0.823        -19.271
   0.825        -19.274
   0.828        -19.276
   0.830        -19.278
   0.832        -19.280
   0.834        -19.282
   0.836        -19.285
   0.838        -19.287
   0.841        -19.289
   0.843        -19.291
   0.845        -19.294
   0.847        -19.296
   0.849        -19.299
   0.852        -19.301
   0.854        -19.304
   0.856        -19.306
   0.858        -19.309
   0.860        -19.311
   0.862        -19.314
   0.865        -19.316
   0.867        -19.319
   0.869        -19.321
   0.871        -19.324
   0.873        -19.327
   0.875        -19.329
   0.878        -19.332
   0.880        -19.334
   0.882        -19.337
   0.884        -19.340
   0.886        -19.343
   0.888        -19.346
   0.891        -19.349
   0.893        -19.353
   0.895        -19.356
   0.897        -19.359
   0.899        -19.362
   0.901        -19.365
   0.904        -19.369
   0.906        -19.372
   0.908        -19.376
   0.910        -19.380
   0.912        -19.384
   0.915        -19.388
   0.917        -19.392
   0.919        -19.395
   0.921        -19.399
   0.923        -19.403
   0.925        -19.407
   0.928        -19.412
   0.930        -19.416
   0.932        -19.421
   0.934        -19.426
   0.936        -19.431
   0.938        -19.436
   0.941        -19.440
   0.943        -19.445
   0.945        -19.450
   0.947        -19.455
   0.949        -19.461
   0.951        -19.468
   0.954        -19.474
   0.956        -19.481
   0.958        -19.487
   0.960        -19.494
   0.962        -19.500
   0.964        -19.507
   0.967        -19.514
   0.969        -19.519
   0.971        -19.524
   0.973        -19.530
   0.975        -19.535
   0.977        -19.540
   0.980        -19.545
   0.982        -19.550
   0.984        -19.555
   0.986        -19.560
   0.988        -19.569
   0.990        -19.579
   0.993        -19.584
   0.995        -19.590
   0.997        -19.596
   0.999        -19.602
   1.001        -19.608
   1.004        -19.614
   1.006        -19.619
   1.008        -19.625
   1.010        -19.633
   1.012        -19.644
   1.014        -19.655
   1.017        -19.667
   1.019        -19.678
   1.021        -19.689
   1.023        -19.701
   1.025        -19.712
   1.027        -19.723
   1.030        -19.735
   1.032        -19.750
   1.034        -19.766
   1.036        -19.782
   1.038        -19.799
   1.040        -19.815
   1.043        -19.832
   1.045        -19.848
   1.047        -19.865
   1.049        -19.881
   1.051        -19.899
   1.053        -19.925
   1.056        -19.951
   1.058        -19.978
   1.060        -20.005
   1.062        -20.031
   1.064        -20.058
   1.066        -20.084
   1.069        -20.111
   1.071        -20.138
   1.073        -20.180
   1.075        -20.236
   1.077        -20.293
   1.079        -20.349
   1.082        -20.406
   1.084        -20.463
   1.086        -20.519
   1.088        -20.576
   1.090        -20.632
   1.093        -20.689
   1.095        -20.752
   1.097        -20.816
   1.099        -20.879
   1.101        -20.943
   1.103        -21.007
   1.106        -21.071
   1.108        -21.134
   1.110        -21.198
   1.112        -21.271
   1.114        -21.309
   1.117        -21.312
   1.119        -21.315
   1.121        -21.318
   1.123        -21.322
   1.125        -21.325
   1.127        -21.328
   1.129        -21.331
   1.131        -21.334
   1.134        -21.338
   1.136        -21.341
   1.138        -21.344
   1.140        -21.347
   1.143        -21.350
   1.145        -21.352
   1.147        -21.355
   1.149        -21.358
   1.151        -21.361
   1.153        -21.364
   1.155        -21.367
   1.158        -21.369
   1.160        -21.372
   1.162        -21.375
   1.164        -21.378
   1.166        -21.380
   1.169        -21.383
   1.171        -21.386
   1.173        -21.388
   1.175        -21.391
   1.177        -21.393
   1.180        -21.396
   1.181        -21.399
   1.184        -21.401
   1.186        -21.404
   1.188        -21.407
   1.190        -21.409
   1.192        -21.412
   1.195        -21.415
   1.197        -21.417
   1.199        -21.420
   1.201        -21.423
   1.203        -21.425
   1.205        -21.428
   1.208        -21.431
   1.210        -21.433
   1.212        -21.436
   1.214        -21.438
   1.216        -21.441
   1.218        -21.443
   1.220        -21.446
   1.223        -21.449
   1.225        -21.451
   1.227        -21.454
   1.229        -21.456
   1.232        -21.459
   1.234        -21.461
   1.236        -21.464
   1.238        -21.466
   1.240        -21.468
   1.242        -21.471
   1.245        -21.473
   1.247        -21.475
   1.249        -21.478
   1.251        -21.480
   1.253        -21.482
   1.255        -21.484
   1.258        -21.487
   1.260        -21.490
   1.262        -21.492
   1.264        -21.495
   1.266        -21.497
   1.268        -21.500
   1.270        -21.502
   1.273        -21.505
   1.275        -21.508
   1.277        -21.511
   1.279        -21.513
   1.281        -21.516
   1.284        -21.519
   1.286        -21.522
   1.288        -21.525
   1.290        -21.528
   1.292        -21.531
   1.294        -21.533
   1.297        -21.537
   1.299        -21.539
   1.301        -21.542
   1.303        -21.546
   1.305        -21.549
   1.307        -21.552
   1.310        -21.555
   1.312        -21.559
   1.314        -21.562
   1.316        -21.565
   1.318        -21.568
   1.320        -21.572
   1.323        -21.575
   1.325        -21.579
   1.327        -21.582
   1.329        -21.585
   1.331        -21.589
   1.334        -21.593
   1.336        -21.596
   1.338        -21.600
   1.340        -21.603
   1.342        -21.607
   1.344        -21.611
   1.346        -21.615
   1.349        -21.619
   1.351        -21.623
   1.353        -21.626
   1.355        -21.631
   1.357        -21.635
   1.359        -21.638
   1.362        -21.642
   1.364        -21.646
   1.366        -21.650
   1.368        -21.653
   1.370        -21.657
   1.373        -21.660
   1.375        -21.664
   1.377        -21.668
   1.379        -21.671
   1.381        -21.675
   1.383        -21.678
   1.386        -21.681
   1.388        -21.683
   1.390        -21.686
   1.392        -21.688
   1.394        -21.691
   1.397        -21.693
   1.399        -21.696
   1.401        -21.698
   1.403        -21.701
   1.405        -21.703
   1.407        -21.706
   1.410        -21.709
   1.412        -21.711
   1.414        -21.714
   1.416        -21.717
   1.418        -21.719
   1.420        -21.722
   1.423        -21.724
   1.425        -21.727
   1.427        -21.730
   1.429        -21.732
   1.431        -21.735
   1.433        -21.737
   1.436        -21.740
   1.438        -21.742
   1.440        -21.745
   1.442        -21.748
   1.444        -21.750
   1.446        -21.752
   1.449        -21.755
   1.451        -21.757
   1.453        -21.759
   1.455        -21.761
   1.457        -21.764
   1.460        -21.766
   1.462        -21.768
   1.464        -21.770
   1.466        -21.773
   1.468        -21.774
   1.470        -21.776
   1.472        -21.777
   1.475        -21.779
   1.477        -21.780
   1.479        -21.782
   1.481        -21.783
   1.483        -21.785
   1.486        -21.787
   1.488        -21.788
   1.490        -21.789
   1.492        -21.789
   1.494        -21.790
   1.496        -21.791
   1.498        -21.791
   1.501        -21.792
   1.503        -21.793
   1.505        -21.793
   1.507        -21.794
   1.509        -21.794
   1.512        -21.794
   1.514        -21.794
   1.516        -21.793
   1.518        -21.793
   1.520        -21.793
   1.522        -21.793
   1.525        -21.792
   1.527        -21.792
   1.529        -21.791
   1.531        -21.790
   1.533        -21.789
   1.535        -21.787
   1.538        -21.786
   1.540        -21.785
   1.542        -21.784
   1.544        -21.782
   1.546        -21.781
   1.549        -21.780
   1.551        -21.778
   1.553        -21.776
   1.555        -21.774
   1.557        -21.772
   1.559        -21.770
   1.561        -21.769
   1.564        -21.767
   1.566        -21.765
   1.568        -21.763
   1.570        -21.761
   1.572        -21.758
   1.575        -21.756
   1.577        -21.754
   1.579        -21.751
   1.581        -21.749
   1.583        -21.746
   1.585        -21.744
   1.588        -21.741
   1.590        -21.830
   1.592        -22.040
   1.594        -22.046
   1.596        -22.051
   1.598        -22.057
   1.601        -22.062
   1.603        -22.067
   1.605        -22.073
   1.607        -22.078
   1.609        -22.083
   1.611        -22.088
   1.614        -22.095
   1.616        -22.101
   1.618        -22.108
   1.620        -22.115
   1.622        -22.121
   1.624        -22.128
   1.627        -22.135
   1.629        -22.141
   1.631        -22.148
   1.633        -22.155
   1.635        -22.163
   1.637        -22.171
   1.640        -22.179
   1.642        -22.186
   1.644        -22.194
   1.646        -22.202
   1.648        -22.210
   1.651        -22.218
   1.653        -22.226
   1.655        -22.235
   1.657        -22.245
   1.659        -22.255
   1.661        -22.265
   1.664        -22.275
   1.666        -22.285
   1.668        -22.294
   1.670        -22.304
   1.672        -22.314
   1.674        -22.324
   1.676        -22.337
   1.679        -22.350
   1.681        -22.363
   1.683        -22.376
   1.685        -22.389
   1.687        -22.402
   1.690        -22.415
   1.692        -22.428
   1.694        -22.441
   1.696        -22.458
   1.699        -22.482
   1.701        -22.503
   1.703        -22.522
   1.705        -22.541
   1.707        -22.562
   1.709        -22.583
   1.711        -22.604
   1.714        -22.626
   1.716        -22.638
   1.718        -22.665
   1.720        -22.692
   1.722        -22.725
   1.724        -22.757
   1.727        -22.790
   1.729        -22.823
   1.731        -22.856
   1.733        -22.888
   1.735        -22.921
   1.737        -22.949
   1.739        -22.970
   1.742        -22.991
   1.744        -23.011
   1.746        -23.032
   1.748        -23.052
   1.750        -23.073
   1.753        -23.093
   1.755        -23.114
   1.757        -23.134
   1.759        -23.146
   1.761        -23.155
   1.763        -23.165
   1.766        -23.174
   1.768        -23.184
   1.770        -23.193
   1.772        -23.203
   1.774        -23.212
   1.776        -23.222
   1.779        -23.230
   1.781        -23.234
   1.783        -23.237
   1.785        -23.241
   1.787        -23.245
   1.789        -23.248
   1.792        -23.252
   1.794        -23.255
   1.796        -23.259
   1.798        -23.262
   1.800        -23.265
   1.802        -23.266
   1.805        -23.268
   1.807        -23.270
   1.809        -23.271
   1.811        -23.273
   1.813        -23.274
   1.816        -23.276
   1.818        -23.277
   1.820        -23.279
   1.822        -23.280
   1.824        -23.281
   1.826        -23.282
   1.829        -23.283
   1.831        -23.284
   1.833        -23.285
   1.835        -23.286
   1.837        -23.287
   1.839        -23.288
   1.842        -23.289
   1.844        -23.289
   1.846        -23.290
   1.848        -23.291
   1.850        -23.292
   1.852        -23.293
   1.855        -23.294
   1.857        -23.294
   1.859        -23.295
   1.861        -23.296
   1.863        -23.297
   1.865        -23.298
   1.868        -23.299
   1.870        -23.300
   1.872        -23.301
   1.874        -23.301
   1.876        -23.302
   1.878        -23.303
   1.881        -23.304
   1.883        -23.305
   1.885        -23.306
   1.887        -23.307
   1.889        -23.308
   1.891        -23.309
   1.894        -23.310
   1.896        -23.311
   1.898        -23.311
   1.900        -23.312
   1.902        -23.313
   1.905        -23.314
   1.907        -23.315
   1.909        -23.316
   1.911        -23.317
   1.913        -23.318
   1.915        -23.320
   1.918        -23.320
   1.920        -23.321
   1.922        -23.322
   1.924        -23.324
   1.926        -23.325
   1.928        -23.326
   1.931        -23.327
   1.933        -23.328
   1.935        -23.329
   1.937        -23.330
   1.939        -23.331
   1.941        -23.332
   1.944        -23.334
   1.946        -23.335
   1.948        -23.336
   1.950        -23.337
   1.952        -23.338
   1.954        -23.339
   1.957        -23.341
   1.959        -23.342
   1.961        -23.343
   1.963        -23.344
   1.965        -23.345
   1.967        -23.347
   1.970        -23.348
   1.972        -23.350
   1.974        -23.351
   1.976        -23.352
   1.978        -23.353
   1.980        -23.355
   1.983        -23.356
   1.985        -23.357
   1.987        -23.358
   1.989        -23.360
   1.991        -23.361
   1.993        -23.363
   1.996        -23.364
   1.998        -23.366
   2.000        -23.367
   2.002        -23.368
   2.004        -23.370
   2.007        -23.371
   2.009        -23.373
   2.011        -23.374
   2.013        -23.376
   2.015        -23.377
   2.017        -23.379
   2.020        -23.380
   2.022        -23.382
   2.024        -23.383
   2.026        -23.385
   2.028        -23.386
   2.030        -23.388
   2.033        -23.389
   2.035        -23.391
   2.037        -23.392
   2.039        -23.394
   2.041        -23.396
   2.043        -23.397
   2.046        -23.399
   2.048        -23.400
   2.050        -23.402
   2.052        -23.404
   2.054        -23.405
   2.056        -23.407
   2.059        -23.409
   2.061        -23.410
   2.063        -23.412
   2.065        -23.414
   2.067        -23.415
   2.069        -23.417
   2.072        -23.419
   2.074        -23.420
   2.076        -23.422
   2.078        -23.424
   2.080        -23.426
   2.083        -23.428
   2.085        -23.429
   2.087        -23.431
   2.089        -23.433
   2.091        -23.435
   2.093        -23.436
   2.096        -23.438
   2.098        -23.440
   2.100        -23.442
   2.102        -23.443
   2.104        -23.445
   2.106        -23.447
   2.109        -23.449
   2.111        -23.451
   2.113        -23.452
   2.115        -23.454
   2.117        -23.456
   2.120        -23.458
   2.122        -23.459
   2.124        -23.461
   2.126        -23.463
   2.128        -23.465
   2.130        -23.466
   2.133        -23.468
   2.135        -23.470
   2.137        -23.471
   2.139        -23.473
   2.141        -23.475
   2.143        -23.477
   2.145        -23.478
   2.148        -23.480
   2.150        -23.482
   2.152        -23.484
   2.154        -23.485
   2.157        -23.487
   2.158        -23.489
   2.161        -23.491
   2.163        -23.492
   2.165        -23.494
   2.167        -23.496
   2.169        -23.497
   2.172        -23.499
   2.174        -23.501
   2.176        -23.502
   2.178        -23.504
   2.180        -23.506
   2.183        -23.508
   2.185        -23.509
   2.187        -23.511
   2.189        -23.512
   2.191        -23.514
   2.193        -23.516
   2.195        -23.517
   2.197        -23.519
   2.200        -23.521
   2.202        -23.523
   2.204        -23.524
   2.206        -23.526
   2.208        -23.527
   2.211        -23.529
   2.213        -23.531
   2.215        -23.532
   2.217        -23.534
   2.219        -23.535
   2.221        -23.537
   2.224        -23.538
   2.226        -23.540
   2.228        -23.541
   2.230        -23.543
   2.232        -23.544
   2.235        -23.546
   2.237        -23.548
   2.239        -23.549
   2.241        -23.551
   2.243        -23.552
   2.245        -23.553
   2.247        -23.555
   2.250        -23.556
   2.252        -23.558
   2.254        -23.559
   2.256        -23.561
   2.259        -23.562
   2.261        -23.563
   2.263        -23.565
   2.265        -23.566
   2.267        -23.567
   2.269        -23.568
   2.271        -23.570
   2.274        -23.571
   2.276        -23.572
   2.278        -23.574
   2.280        -23.575
   2.282        -23.576
   2.284        -23.577
   2.287        -23.578
   2.289        -23.580
   2.291        -23.581
   2.293        -23.582
   2.295        -23.583
   2.297        -23.584
   2.299        -23.585
   2.302        -23.586
   2.304        -23.587
   2.306        -23.589
   2.308        -23.589
   2.310        -23.591
   2.313        -23.592
   2.315        -23.593
   2.317        -23.594
   2.319        -23.595
   2.321        -23.596
   2.323        -23.597
   2.326        -23.597
   2.328        -23.598
   2.330        -23.600
   2.332        -23.600
   2.334        -23.601
   2.337        -23.602
   2.339        -23.603
   2.341        -23.604
   2.343        -23.605
   2.345        -23.606
   2.347        -23.607
   2.349        -23.607
   2.352        -23.608
   2.354        -23.609
   2.356        -23.610
   2.358        -23.611
   2.360        -23.612
   2.363        -23.612
   2.365        -23.613
   2.367        -23.614
   2.369        -23.615
   2.371        -23.616
   2.374        -23.617
   2.376        -23.617
   2.378        -23.618
   2.380        -23.619
   2.382        -23.620
   2.384        -23.621
   2.386        -23.622
   2.389        -23.623
   2.391        -23.624
   2.393        -23.625
   2.395        -23.626
   2.397        -23.627
   2.400        -23.628
   2.402        -23.629
   2.404        -23.630
   2.406        -23.631
   2.408        -23.633
   2.410        -23.634
   2.413        -23.636
   2.415        -23.637
   2.417        -23.638
   2.419        -23.640
   2.421        -23.641
   2.423        -23.643
   2.425        -23.644
   2.428        -23.645
   2.430        -23.646
   2.432        -23.647
   2.434        -23.648
   2.436        -23.649
   2.439        -23.650
   2.441        -23.651
   2.443        -23.652
   2.445        -23.653
   2.447        -23.653
   2.449        -23.654
   2.452        -23.654
   2.454        -23.655
   2.456        -23.655
   2.458        -23.655
   2.460        -23.656
   2.462        -23.656
   2.465        -23.656
   2.467        -23.656
   2.469        -23.657
   2.471        -23.657
   2.473        -23.657
   2.475        -23.658
   2.478        -23.658
   2.480        -23.658
   2.482        -23.658
   2.484        -23.658
   2.486        -23.659
   2.489        -23.659
   2.491        -23.659
   2.493        -23.660
   2.495        -23.660
   2.497        -23.660
   2.499        -23.660
   2.502        -23.661
   2.504        -23.661
   2.506        -23.661
   2.508        -23.662
   2.510        -23.662
   2.512        -23.662
   2.514        -23.662
   2.517        -23.663
   2.519        -23.663
   2.521        -23.663
   2.523        -23.663
   2.525        -23.664
   2.528        -23.664
   2.530        -23.665
   2.532        -23.665
   2.534        -23.665
   2.536        -23.666
   2.538        -23.666
   2.541        -23.666
   2.543        -23.667
   2.545        -23.667
   2.547        -23.668
   2.549        -23.668
   2.552        -23.669
   2.554        -23.669
   2.556        -23.670
   2.558        -23.671
   2.560        -23.671
   2.562        -23.672
   2.565        -23.673
   2.567        -23.673
   2.569        -23.674
   2.571        -23.675
   2.573        -23.676
   2.575        -23.677
   2.578        -23.678
   2.580        -23.679
   2.582        -23.680
   2.584        -23.681
   2.586        -23.682
   2.588        -23.682
   2.590        -23.683
   2.593        -23.685
   2.595        -23.687
   2.597        -23.688
   2.599        -23.689
   2.601        -23.691
   2.604        -23.692
   2.606        -23.694
   2.608        -23.695
   2.610        -23.697
   2.612        -23.699
   2.614        -23.701
   2.617        -23.703
   2.619        -23.705
   2.621        -23.708
   2.623        -23.710
   2.625        -23.712
   2.627        -23.714
   2.630        -23.717
   2.632        -23.719
   2.634        -23.722
   2.636        -23.726
   2.638        -23.729
   2.641        -23.733
   2.643        -23.736
   2.645        -23.740
   2.647        -23.743
   2.649        -23.746
   2.651        -23.750
   2.654        -23.754
   2.656        -23.759
   2.658        -23.764
   2.660        -23.770
   2.662        -23.775
   2.664        -23.780
   2.666        -23.785
   2.669        -23.790
   2.671        -23.795
   2.673        -23.801
   2.675        -23.807
   2.677        -23.814
   2.680        -23.820
   2.682        -23.827
   2.684        -23.834
   2.686        -23.841
   2.688        -23.847
   2.690        -23.854
   2.693        -23.861
   2.695        -23.868
   2.697        -23.874
   2.699        -23.881
   2.701        -23.887
   2.703        -23.894
   2.706        -23.900
   2.708        -23.907
   2.710        -23.914
   2.712        -23.920
   2.714        -23.927
   2.716        -23.933
   2.719        -23.939
   2.721        -23.944
   2.723        -23.950
   2.725        -23.956
   2.727        -23.962
   2.729        -23.967
   2.732        -23.973
   2.734        -23.979
   2.736        -23.984
   2.738        -23.989
   2.740        -23.995
   2.743        -24.000
   2.745        -24.005
   2.747        -24.010
   2.749        -24.015
   2.751        -24.020
   2.753        -24.025
   2.756        -24.030
   2.758        -24.035
   2.760        -24.039
   2.762        -24.044
   2.764        -24.049
   2.766        -24.053
   2.769        -24.058
   2.771        -24.062
   2.773        -24.067
   2.775        -24.072
   2.777        -24.076
   2.779        -24.081
   2.782        -24.085
   2.784        -24.089
   2.786        -24.093
   2.788        -24.097
   2.790        -24.101
   2.792        -24.105
   2.795        -24.110
   2.797        -24.114
   2.799        -24.118
   2.801        -24.122
   2.803        -24.126
   2.805        -24.129
   2.808        -24.133
   2.810        -24.137
   2.812        -24.141
   2.814        -24.144
   2.816        -24.148
   2.819        -24.152
   2.821        -24.155
   2.823        -24.158
   2.825        -24.162
   2.827        -24.165
   2.829        -24.168
   2.832        -24.172
   2.834        -24.175
   2.836        -24.179
   2.838        -24.182
   2.840        -24.185
   2.842        -24.188
   2.845        -24.191
   2.847        -24.194
   2.849        -24.197
   2.851        -24.200
   2.853        -24.203
   2.855        -24.205
   2.858        -24.208
   2.860        -24.211
   2.862        -24.214
   2.864        -24.216
   2.866        -24.219
   2.868        -24.221
   2.871        -24.224
   2.873        -24.226
   2.875        -24.229
   2.877        -24.231
   2.879        -24.234
   2.881        -24.236
   2.884        -24.239
   2.886        -24.241
   2.888        -24.244
   2.890        -24.246
   2.892        -24.248
   2.894        -24.250
   2.897        -24.253
   2.899        -24.255
   2.901        -24.257
   2.903        -24.259
   2.905        -24.262
   2.908        -24.263
   2.910        -24.265
   2.912        -24.267
   2.914        -24.269
   2.916        -24.271
   2.918        -24.273
   2.921        -24.275
   2.923        -24.277
   2.925        -24.279
   2.927        -24.280
   2.929        -24.282
   2.931        -24.283
   2.934        -24.285
   2.936        -24.286
   2.938        -24.288
   2.940        -24.289
   2.942        -24.291
   2.944        -24.293
   2.947        -24.294
   2.949        -24.295
   2.951        -24.297
   2.953        -24.298
   2.955        -24.299
   2.957        -24.301
   2.960        -24.302
   2.962        -24.304
   2.964        -24.305
   2.966        -24.306
   2.968        -24.307
   2.970        -24.309
   2.973        -24.310
   2.975        -24.311
   2.977        -24.313
   2.979        -24.314
   2.981        -24.315
   2.984        -24.316
   2.986        -24.318
   2.988        -24.319
   2.990        -24.320
   2.992        -24.321
   2.994        -24.322
   2.997        -24.324
   2.999        -24.325
   3.001        -24.326
   3.003        -24.327
   3.005        -24.328
   3.007        -24.329
   3.010        -24.331
   3.012        -24.332
   3.014        -24.333
   3.016        -24.334
   3.018        -24.335
   3.020        -24.336
   3.023        -24.337
   3.025        -24.338
   3.027        -24.339
   3.029        -24.340
   3.031        -24.342
   3.033        -24.343
   3.036        -24.344
   3.038        -24.345
   3.040        -24.346
   3.042        -24.347
   3.044        -24.348
   3.046        -24.349
   3.049        -24.350
   3.051        -24.351
   3.053        -24.352
   3.055        -24.353
   3.057        -24.354
   3.060        -24.356
   3.062        -24.357
   3.064        -24.358
   3.066        -24.359
   3.068        -24.360
   3.070        -24.361
   3.073        -24.362
   3.075        -24.363
   3.077        -24.364
   3.079        -24.365
   3.081        -24.366
   3.083        -24.367
   3.086        -24.368
   3.088        -24.370
   3.090        -24.370
   3.092        -24.371
   3.094        -24.372
   3.096        -24.373
   3.099        -24.374
   3.101        -24.375
   3.103        -24.376
   3.105        -24.377
   3.107        -24.378
   3.109        -24.379
   3.112        -24.380
   3.114        -24.381
   3.116        -24.382
   3.118        -24.383
   3.120        -24.384
   3.123        -24.385
   3.125        -24.386
   3.127        -24.387
   3.129        -24.388
   3.131        -24.389
   3.133        -24.390
   3.136        -24.391
   3.138        -24.391
   3.140        -24.392
   3.142        -24.393
   3.144        -24.394
   3.146        -24.395
   3.149        -24.396
   3.151        -24.397
   3.153        -24.398
   3.155        -24.399
   3.157        -24.400
   3.159        -24.400
   3.162        -24.401
   3.164        -24.402
   3.166        -24.403
   3.168        -24.404
   3.170        -24.405
   3.172        -24.406
   3.175        -24.407
   3.177        -24.408
   3.179        -24.409
   3.181        -24.410
   3.183        -24.411
   3.185        -24.412
   3.188        -24.413
   3.190        -24.414
   3.192        -24.414
   3.194        -24.415
   3.196        -24.416
   3.199        -24.417
   3.201        -24.418
   3.203        -24.419
   3.205        -24.420
   3.207        -24.421
   3.209        -24.422
   3.212        -24.423
   3.214        -24.424
   3.216        -24.424
   3.218        -24.425
   3.220        -24.426
   3.222        -24.427
   3.225        -24.428
   3.227        -24.429
   3.229        -24.430
   3.231        -24.431
   3.233        -24.432
   3.236        -24.433
   3.237        -24.433
   3.240        -24.435
   3.242        -24.436
   3.244        -24.436
   3.246        -24.437
   3.248        -24.438
   3.251        -24.439
   3.253        -24.439
   3.255        -24.440
   3.257        -24.441
   3.259        -24.442
   3.261        -24.443
   3.263        -24.444
   3.266        -24.444
   3.268        -24.445
   3.270        -24.446
   3.272        -24.447
   3.274        -24.447
   3.277        -24.448
   3.279        -24.449
   3.281        -24.450
   3.283        -24.451
   3.285        -24.452
   3.287        -24.452
   3.290        -24.453
   3.292        -24.454
   3.294        -24.455
   3.296        -24.455
   3.298        -24.456
   3.301        -24.458
   3.303        -24.459
   3.305        -24.460
   3.307        -24.461
   3.309        -24.462
   3.311        -24.463
   3.313        -24.464
   3.316        -24.465
   3.318        -24.467
   3.320        -24.468
   3.322        -24.469
   3.324        -24.470
   3.327        -24.471
   3.329        -24.473
   3.331        -24.474
   3.333        -24.475
   3.335        -24.476
   3.337        -24.477
   3.340        -24.478
   3.342        -24.480
   3.344        -24.481
   3.346        -24.482
   3.348        -24.483
   3.350        -24.484
   3.352        -24.485
   3.355        -24.486
   3.357        -24.487
   3.359        -24.489
   3.361        -24.490
   3.363        -24.491
   3.366        -24.492
   3.368        -24.493
   3.370        -24.494
   3.372        -24.495
   3.374        -24.496
   3.376        -24.497
   3.379        -24.498
   3.381        -24.500
   3.383        -24.501
   3.385        -24.502
   3.387        -24.503
   3.389        -24.504
   3.392        -24.505
   3.394        -24.506
   3.396        -24.507
   3.398        -24.508
   3.400        -24.509
   3.402        -24.510
   3.405        -24.511
   3.407        -24.512
   3.409        -24.513
   3.411        -24.514
   3.413        -24.516
   3.416        -24.516
   3.418        -24.518
   3.420        -24.518
   3.422        -24.519
   3.424        -24.521
   3.426        -24.521
   3.429        -24.523
   3.431        -24.524
   3.433        -24.525
   3.435        -24.526
   3.437        -24.527
   3.439        -24.528
   3.442        -24.529
   3.444        -24.530
   3.446        -24.531
   3.448        -24.532
   3.450        -24.533
   3.452        -24.534
   3.455        -24.535
   3.457        -24.536
   3.459        -24.537
   3.461        -24.538
   3.463        -24.539
   3.466        -24.540
   3.468        -24.541
   3.470        -24.542
   3.472        -24.543
   3.474        -24.544
   3.476        -24.545
   3.478        -24.546
   3.481        -24.547
   3.483        -24.548
   3.485        -24.549
   3.487        -24.550
   3.489        -24.551
   3.492        -24.552
   3.494        -24.553
   3.496        -24.554
   3.498        -24.554
   3.500        -24.555
   3.502        -24.556
   3.505        -24.557
   3.507        -24.558
   3.509        -24.559
   3.511        -24.560
   3.513        -24.561
   3.515        -24.562
   3.518        -24.563
   3.520        -24.564
   3.522        -24.565
   3.524        -24.566
   3.526        -24.567
   3.528        -24.568
   3.531        -24.568
   3.533        -24.569
   3.535        -24.570
   3.537        -24.571
   3.539        -24.572
   3.541        -24.573
   3.544        -24.574
   3.546        -24.575
   3.548        -24.576
   3.550        -24.576
   3.552        -24.577
   3.555        -24.578
   3.557        -24.579
   3.559        -24.580
   3.561        -24.581
   3.563        -24.582
   3.565        -24.583
   3.568        -24.584
   3.570        -24.584
   3.572        -24.585
   3.574        -24.586
   3.576        -24.587
   3.578        -24.588
   3.581        -24.589
   3.583        -24.589
   3.585        -24.590
   3.587        -24.591
   3.589        -24.592
   3.591        -24.593
   3.594        -24.594
   3.596        -24.595
   3.598        -24.595
   3.600        -24.596
   3.602        -24.597
   3.604        -24.598
   3.607        -24.599
   3.609        -24.600
   3.611        -24.600
   3.613        -24.601
   3.615        -24.602
   3.617        -24.603
   3.620        -24.604
   3.622        -24.605
   3.624        -24.606
   3.626        -24.606
   3.628        -24.608
   3.630        -24.608
   3.633        -24.609
   3.635        -24.610
   3.637        -24.611
   3.639        -24.612
   3.641        -24.613
   3.644        -24.614
   3.646        -24.615
   3.648        -24.616
   3.650        -24.617
   3.652        -24.618
   3.654        -24.619
   3.657        -24.620
   3.659        -24.621
   3.661        -24.622
   3.663        -24.623
   3.665        -24.624
   3.667        -24.625
   3.670        -24.626
   3.672        -24.627
   3.674        -24.628
   3.676        -24.630
   3.678        -24.631
   3.680        -24.632
   3.683        -24.633
   3.685        -24.634
   3.687        -24.635
   3.689        -24.636
   3.691        -24.637
   3.693        -24.638
   3.696        -24.640
   3.698        -24.641
   3.700        -24.642
   3.702        -24.643
   3.704        -24.644
   3.706        -24.645
   3.709        -24.646
   3.711        -24.647
   3.713        -24.649
   3.715        -24.650
   3.717        -24.651
   3.719        -24.652
   3.722        -24.654
   3.724        -24.655
   3.726        -24.656
   3.728        -24.657
   3.730        -24.658
   3.733        -24.659
   3.735        -24.661
   3.737        -24.662
   3.739        -24.663
   3.741        -24.665
   3.743        -24.666
   3.746        -24.667
   3.748        -24.668
   3.750        -24.670
   3.752        -24.671
   3.754        -24.672
   3.756        -24.674
   3.759        -24.675
   3.761        -24.677
   3.763        -24.678
   3.765        -24.679
   3.767        -24.681
   3.769        -24.682
   3.772        -24.684
   3.774        -24.685
   3.776        -24.686
   3.778        -24.688
   3.780        -24.689
   3.782        -24.691
   3.785        -24.692
   3.787        -24.694
   3.789        -24.696
   3.791        -24.697
   3.793        -24.699
   3.795        -24.700
   3.798        -24.702
   3.800        -24.703
   3.802        -24.705
   3.804        -24.706
   3.806        -24.708
   3.809        -24.710
   3.811        -24.711
   3.813        -24.713
   3.815        -24.715
   3.817        -24.716
   3.819        -24.718
   3.822        -24.720
   3.824        -24.721
   3.826        -24.723
   3.828        -24.724
   3.830        -24.726
   3.832        -24.727
   3.835        -24.729
   3.837        -24.731
   3.839        -24.732
   3.841        -24.733
   3.843        -24.734
   3.845        -24.736
   3.848        -24.737
   3.850        -24.738
   3.852        -24.739
   3.854        -24.740
   3.856        -24.741
   3.858        -24.742
   3.861        -24.743
   3.863        -24.744
   3.865        -24.745
   3.867        -24.745
   3.869        -24.746
   3.871        -24.747
   3.874        -24.747
   3.876        -24.748
   3.878        -24.749
   3.880        -24.750
   3.882        -24.750
   3.885        -24.751
   3.887        -24.752
   3.889        -24.753
   3.891        -24.753
   3.899        -24.756
   3.912        -24.760
   3.925        -24.764
   3.938        -24.768
   3.951        -24.772
   3.964        -24.776
   3.977        -24.780
   3.990        -24.784
   4.003        -24.788
   4.016        -24.791
   4.029        -24.795
   4.042        -24.799
   4.055        -24.803
   4.068        -24.806
   4.081        -24.810
   4.094        -24.813
   4.107        -24.817
   4.120        -24.820
   4.133        -24.824
   4.146        -24.828
   4.159        -24.831
   4.172        -24.835
   4.185        -24.838
   4.198        -24.842
   4.211        -24.847
   4.224        -24.851
   4.237        -24.856
   4.250        -24.861
   4.263        -24.867
   4.276        -24.873
   4.289        -24.880
   4.302        -24.887
   4.315        -24.894
   4.328        -24.902
   4.341        -24.911
   4.354        -24.920
   4.367        -24.929
   4.380        -24.939
   4.393        -24.949
   4.406        -24.959
   4.420        -24.970
   4.432        -24.981
   4.445        -24.993
   4.459        -25.005
   4.471        -25.017
   4.484        -25.029
   4.498        -25.042
   4.510        -25.055
   4.524        -25.068
   4.537        -25.081
   4.550        -25.094
   4.563        -25.108
   4.576        -25.122
   4.589        -25.136
   4.602        -25.150
   4.615        -25.165
   4.628        -25.179
   4.641        -25.194
   4.654        -25.209
   4.667        -25.224
   4.680        -25.239
   4.693        -25.254
   4.706        -25.269
   4.719        -25.285
   4.732        -25.301
   4.745        -25.317
   4.758        -25.333
   4.771        -25.349
   4.784        -25.365
   4.797        -25.381
   4.810        -25.398
   4.823        -25.415
   4.836        -25.432
   4.849        -25.449
   4.862        -25.466
   4.875        -25.483
   4.888        -25.501
   4.901        -25.518
   4.914        -25.536
   4.927        -25.554
   4.940        -25.572
   4.953        -25.590
   4.966        -25.609
   4.979        -25.627
   4.992        -25.646
   5.005        -25.665
   5.018        -25.683
   5.031        -25.702
   5.044        -25.722
   5.057        -25.741
   5.070        -25.761
   5.083        -25.780
   5.096        -25.800
   5.109        -25.819
   5.123        -25.839
   5.136        -25.859
   5.149        -25.879
   5.162        -25.899
   5.175        -25.919
   5.188        -25.940
   5.201        -25.960
   5.214        -25.980
   5.227        -26.000
   5.240        -26.021
   5.253        -26.041
   5.266        -26.061
   5.279        -26.082
   5.292        -26.102
   5.305        -26.123
   5.318        -26.144
   5.331        -26.165
   5.344        -26.186
   5.357        -26.207
   5.370        -26.229
   5.383        -26.250
   5.396        -26.272
   5.409        -26.294
   5.422        -26.316
   5.435        -26.338
   5.448        -26.361
   5.461        -26.384
   5.474        -26.407
   5.487        -26.431
   5.500        -26.454
   5.513        -26.478
   5.526        -26.502
   5.539        -26.527
   5.552        -26.552
   5.565        -26.577
   5.578        -26.603
   5.591        -26.629
   5.604        -26.655
   5.617        -26.682
   5.630        -26.709
   5.643        -26.737
   5.656        -26.764
   5.669        -26.793
   5.682        -26.822
   5.695        -26.851
   5.708        -26.880
   5.721        -26.911
   5.734        -26.942
   5.748        -26.973
   5.761        -27.005
   5.774        -27.037
   5.787        -27.070
   5.800        -27.104
   5.813        -27.138
   5.826        -27.172
   5.839        -27.208
   5.852        -27.244
   5.865        -27.281
   5.878        -27.319
   5.891        -27.357
   5.904        -27.396
   5.917        -27.436
   5.930        -27.477
   5.943        -27.518
   5.956        -27.560
   5.969        -27.603
   5.982        -27.647
   5.995        -27.692
   6.008        -27.739
   6.021        -27.786
   6.034        -27.833
   6.047        -27.881
   6.060        -27.932
   6.073        -27.984
   6.086        -28.036
   6.099        -28.089
   6.112        -28.144
   6.125        -28.200
   6.138        -28.257
   6.151        -28.315
   6.164        -28.375
   6.177        -28.436
   6.190        -28.499
   6.203        -28.563
   6.216        -28.629
   6.229        -28.696
   6.242        -28.765
   6.255        -28.835
   6.268        -28.908
   6.281        -28.981
   6.294        -29.057
   6.307        -29.134
   6.320        -29.212
   6.334        -29.294
   6.346        -29.377
   6.359        -29.462
   6.372        -29.550
   6.386        -29.640
   6.399        -29.732
   6.411        -29.826
   6.425        -29.922
   6.438        -30.022
   6.451        -30.123
   6.464        -30.226
   6.477        -30.331
   6.490        -30.440
   6.503        -30.553
   6.516        -30.668
   6.529        -30.785
   6.542        -30.907
   6.555        -31.031
   6.568        -31.158
   6.581        -31.288
   6.594        -31.423
   6.607        -31.563
   6.620        -31.704
   6.633        -31.847
   6.646        -31.993
   6.659        -32.146
   6.672        -32.304
   6.685        -32.464
   6.698        -32.628
   6.711        -32.798
   6.724        -32.974
   6.737        -33.153
   6.750        -33.333
   6.763        -33.526
   6.776        -33.728
   6.789        -33.929
   6.802        -34.133
   6.815        -34.342
   6.828        -34.581
   6.841        -34.841
   6.854        -35.140
   6.867        -35.767
   6.880        -36.818
   6.893        -40.520
