# log Energy    log Jnu
# (eV)          (ergs/s/cm2/Hz/Sr)
  -6.864        -20.530
  -6.820        -20.443
  -6.777        -20.356
  -6.734        -20.269
  -6.690        -20.182
  -6.647        -20.096
  -6.603        -20.009
  -6.560        -19.922
  -6.516        -19.835
  -6.473        -19.748
  -6.430        -19.661
  -6.386        -19.574
  -6.343        -19.488
  -6.299        -19.401
  -6.256        -19.314
  -6.212        -19.227
  -6.169        -19.140
  -6.126        -19.053
  -6.082        -18.967
  -6.039        -18.880
  -5.995        -18.793
  -5.952        -18.706
  -5.908        -18.619
  -5.865        -18.533
  -5.822        -18.446
  -5.778        -18.359
  -5.735        -18.272
  -5.691        -18.185
  -5.648        -18.098
  -5.605        -18.012
  -5.561        -17.925
  -5.518        -17.838
  -5.474        -17.752
  -5.431        -17.665
  -5.387        -17.578
  -5.344        -17.491
  -5.300        -17.405
  -5.257        -17.318
  -5.214        -17.231
  -5.170        -17.145
  -5.127        -17.058
  -5.083        -16.972
  -5.040        -16.885
  -4.996        -16.798
  -4.953        -16.712
  -4.910        -16.625
  -4.866        -16.539
  -4.823        -16.453
  -4.779        -16.366
  -4.736        -16.280
  -4.692        -16.194
  -4.649        -16.108
  -4.606        -16.022
  -4.562        -15.936
  -4.519        -15.850
  -4.475        -15.764
  -4.432        -15.679
  -4.388        -15.593
  -4.345        -15.508
  -4.302        -15.423
  -4.258        -15.338
  -4.215        -15.253
  -4.171        -15.168
  -4.128        -15.084
  -4.084        -15.000
  -4.041        -14.916
  -3.998        -14.832
  -3.954        -14.749
  -3.911        -14.667
  -3.867        -14.584
  -3.824        -14.503
  -3.781        -14.422
  -3.737        -14.341
  -3.693        -14.261
  -3.650        -14.182
  -3.607        -14.105
  -3.584        -14.068
  -3.582        -14.058
  -3.580        -14.056
  -3.577        -14.053
  -3.575        -14.050
  -3.573        -14.046
  -3.571        -14.042
  -3.569        -14.038
  -3.567        -14.034
  -3.564        -14.030
  -3.562        -14.026
  -3.560        -14.022
  -3.558        -14.019
  -3.556        -14.015
  -3.554        -14.011
  -3.551        -14.007
  -3.549        -14.003
  -3.547        -14.000
  -3.545        -13.996
  -3.543        -13.992
  -3.540        -13.988
  -3.538        -13.984
  -3.536        -13.981
  -3.534        -13.977
  -3.532        -13.973
  -3.530        -13.969
  -3.528        -13.965
  -3.525        -13.962
  -3.523        -13.958
  -3.521        -13.954
  -3.519        -13.950
  -3.517        -13.946
  -3.514        -13.943
  -3.512        -13.939
  -3.510        -13.935
  -3.508        -13.931
  -3.506        -13.928
  -3.504        -13.924
  -3.502        -13.920
  -3.499        -13.916
  -3.497        -13.913
  -3.495        -13.909
  -3.493        -13.905
  -3.491        -13.901
  -3.488        -13.898
  -3.486        -13.894
  -3.484        -13.890
  -3.482        -13.886
  -3.480        -13.883
  -3.477        -13.879
  -3.475        -13.875
  -3.473        -13.872
  -3.471        -13.868
  -3.469        -13.864
  -3.467        -13.861
  -3.464        -13.857
  -3.462        -13.853
  -3.460        -13.850
  -3.458        -13.846
  -3.456        -13.842
  -3.454        -13.838
  -3.451        -13.835
  -3.449        -13.831
  -3.447        -13.827
  -3.445        -13.824
  -3.443        -13.820
  -3.441        -13.816
  -3.438        -13.813
  -3.436        -13.809
  -3.434        -13.806
  -3.432        -13.802
  -3.430        -13.798
  -3.428        -13.795
  -3.425        -13.791
  -3.423        -13.787
  -3.421        -13.784
  -3.419        -13.780
  -3.417        -13.776
  -3.415        -13.773
  -3.412        -13.769
  -3.410        -13.766
  -3.408        -13.762
  -3.406        -13.758
  -3.404        -13.755
  -3.402        -13.751
  -3.399        -13.748
  -3.397        -13.744
  -3.395        -13.740
  -3.393        -13.737
  -3.391        -13.733
  -3.389        -13.730
  -3.386        -13.726
  -3.384        -13.723
  -3.382        -13.719
  -3.380        -13.716
  -3.378        -13.712
  -3.376        -13.709
  -3.373        -13.705
  -3.371        -13.701
  -3.369        -13.698
  -3.367        -13.694
  -3.365        -13.691
  -3.362        -13.687
  -3.360        -13.684
  -3.358        -13.680
  -3.356        -13.677
  -3.354        -13.673
  -3.352        -13.670
  -3.349        -13.666
  -3.347        -13.663
  -3.345        -13.659
  -3.343        -13.656
  -3.341        -13.653
  -3.339        -13.649
  -3.336        -13.646
  -3.334        -13.642
  -3.332        -13.639
  -3.330        -13.635
  -3.328        -13.632
  -3.326        -13.628
  -3.323        -13.625
  -3.321        -13.622
  -3.319        -13.618
  -3.317        -13.615
  -3.315        -13.611
  -3.313        -13.608
  -3.310        -13.605
  -3.308        -13.601
  -3.306        -13.598
  -3.304        -13.594
  -3.302        -13.591
  -3.300        -13.588
  -3.297        -13.584
  -3.295        -13.581
  -3.293        -13.578
  -3.291        -13.574
  -3.289        -13.571
  -3.287        -13.568
  -3.284        -13.564
  -3.282        -13.561
  -3.280        -13.558
  -3.278        -13.554
  -3.276        -13.551
  -3.273        -13.548
  -3.271        -13.545
  -3.269        -13.541
  -3.267        -13.538
  -3.265        -13.535
  -3.263        -13.531
  -3.260        -13.528
  -3.258        -13.525
  -3.256        -13.522
  -3.254        -13.518
  -3.252        -13.515
  -3.250        -13.512
  -3.247        -13.509
  -3.245        -13.505
  -3.243        -13.502
  -3.241        -13.499
  -3.239        -13.496
  -3.237        -13.493
  -3.234        -13.490
  -3.232        -13.486
  -3.230        -13.483
  -3.228        -13.480
  -3.226        -13.477
  -3.224        -13.474
  -3.221        -13.470
  -3.219        -13.467
  -3.217        -13.464
  -3.215        -13.461
  -3.213        -13.458
  -3.211        -13.455
  -3.208        -13.452
  -3.206        -13.449
  -3.204        -13.446
  -3.202        -13.443
  -3.200        -13.439
  -3.197        -13.436
  -3.195        -13.433
  -3.193        -13.430
  -3.191        -13.427
  -3.189        -13.424
  -3.187        -13.421
  -3.184        -13.418
  -3.182        -13.415
  -3.180        -13.412
  -3.178        -13.409
  -3.176        -13.406
  -3.174        -13.403
  -3.171        -13.400
  -3.169        -13.397
  -3.167        -13.394
  -3.165        -13.391
  -3.163        -13.388
  -3.161        -13.385
  -3.158        -13.382
  -3.156        -13.380
  -3.154        -13.377
  -3.152        -13.374
  -3.150        -13.371
  -3.148        -13.368
  -3.145        -13.365
  -3.143        -13.362
  -3.141        -13.359
  -3.139        -13.356
  -3.137        -13.354
  -3.135        -13.351
  -3.132        -13.348
  -3.130        -13.345
  -3.128        -13.342
  -3.126        -13.339
  -3.124        -13.337
  -3.122        -13.334
  -3.119        -13.331
  -3.117        -13.328
  -3.115        -13.325
  -3.113        -13.323
  -3.111        -13.320
  -3.108        -13.317
  -3.106        -13.315
  -3.104        -13.312
  -3.102        -13.309
  -3.100        -13.307
  -3.098        -13.304
  -3.095        -13.301
  -3.093        -13.299
  -3.091        -13.296
  -3.089        -13.293
  -3.087        -13.291
  -3.085        -13.288
  -3.082        -13.285
  -3.080        -13.283
  -3.078        -13.280
  -3.076        -13.278
  -3.074        -13.275
  -3.072        -13.273
  -3.069        -13.270
  -3.067        -13.267
  -3.065        -13.265
  -3.063        -13.262
  -3.061        -13.260
  -3.059        -13.257
  -3.056        -13.255
  -3.054        -13.252
  -3.052        -13.250
  -3.050        -13.248
  -3.048        -13.245
  -3.046        -13.243
  -3.043        -13.240
  -3.041        -13.238
  -3.039        -13.236
  -3.037        -13.233
  -3.035        -13.231
  -3.032        -13.228
  -3.030        -13.226
  -3.028        -13.224
  -3.026        -13.221
  -3.024        -13.219
  -3.022        -13.216
  -3.019        -13.214
  -3.017        -13.212
  -3.015        -13.210
  -3.013        -13.207
  -3.011        -13.205
  -3.009        -13.203
  -3.006        -13.201
  -3.004        -13.199
  -3.002        -13.196
  -3.000        -13.194
  -2.998        -13.192
  -2.996        -13.190
  -2.993        -13.188
  -2.991        -13.186
  -2.989        -13.184
  -2.987        -13.181
  -2.985        -13.179
  -2.983        -13.177
  -2.980        -13.175
  -2.978        -13.173
  -2.976        -13.171
  -2.974        -13.169
  -2.972        -13.167
  -2.970        -13.165
  -2.967        -13.163
  -2.965        -13.161
  -2.963        -13.159
  -2.961        -13.157
  -2.959        -13.155
  -2.956        -13.153
  -2.954        -13.152
  -2.952        -13.150
  -2.950        -13.148
  -2.948        -13.146
  -2.946        -13.144
  -2.944        -13.142
  -2.941        -13.140
  -2.939        -13.139
  -2.937        -13.137
  -2.935        -13.135
  -2.933        -13.134
  -2.930        -13.132
  -2.928        -13.130
  -2.926        -13.128
  -2.924        -13.127
  -2.922        -13.125
  -2.920        -13.123
  -2.917        -13.122
  -2.915        -13.120
  -2.913        -13.119
  -2.911        -13.117
  -2.909        -13.115
  -2.907        -13.114
  -2.904        -13.112
  -2.902        -13.111
  -2.900        -13.109
  -2.898        -13.108
  -2.896        -13.106
  -2.894        -13.105
  -2.891        -13.104
  -2.889        -13.102
  -2.887        -13.101
  -2.885        -13.099
  -2.883        -13.098
  -2.880        -13.097
  -2.878        -13.095
  -2.876        -13.094
  -2.874        -13.093
  -2.872        -13.091
  -2.870        -13.090
  -2.867        -13.089
  -2.865        -13.088
  -2.863        -13.087
  -2.861        -13.085
  -2.859        -13.085
  -2.857        -13.083
  -2.855        -13.082
  -2.852        -13.081
  -2.850        -13.080
  -2.848        -13.079
  -2.846        -13.078
  -2.843        -13.077
  -2.842        -13.076
  -2.839        -13.075
  -2.837        -13.074
  -2.835        -13.073
  -2.833        -13.072
  -2.831        -13.071
  -2.828        -13.071
  -2.826        -13.070
  -2.824        -13.069
  -2.822        -13.068
  -2.820        -13.067
  -2.817        -13.066
  -2.815        -13.066
  -2.813        -13.065
  -2.811        -13.065
  -2.809        -13.063
  -2.807        -13.063
  -2.805        -13.062
  -2.802        -13.062
  -2.800        -13.061
  -2.798        -13.061
  -2.796        -13.060
  -2.794        -13.060
  -2.792        -13.059
  -2.789        -13.059
  -2.787        -13.058
  -2.785        -13.058
  -2.783        -13.057
  -2.781        -13.057
  -2.779        -13.057
  -2.776        -13.057
  -2.774        -13.056
  -2.772        -13.056
  -2.770        -13.056
  -2.767        -13.056
  -2.765        -13.055
  -2.763        -13.055
  -2.761        -13.055
  -2.759        -13.055
  -2.757        -13.055
  -2.754        -13.055
  -2.753        -13.055
  -2.750        -13.055
  -2.748        -13.055
  -2.746        -13.055
  -2.744        -13.055
  -2.741        -13.055
  -2.739        -13.055
  -2.737        -13.055
  -2.735        -13.056
  -2.733        -13.056
  -2.731        -13.056
  -2.729        -13.056
  -2.726        -13.057
  -2.724        -13.057
  -2.722        -13.057
  -2.720        -13.058
  -2.718        -13.058
  -2.716        -13.059
  -2.713        -13.059
  -2.711        -13.060
  -2.709        -13.060
  -2.707        -13.061
  -2.705        -13.061
  -2.703        -13.062
  -2.700        -13.063
  -2.698        -13.063
  -2.696        -13.064
  -2.694        -13.065
  -2.692        -13.066
  -2.689        -13.067
  -2.687        -13.067
  -2.685        -13.068
  -2.683        -13.069
  -2.681        -13.070
  -2.679        -13.071
  -2.677        -13.072
  -2.674        -13.073
  -2.672        -13.074
  -2.670        -13.075
  -2.668        -13.076
  -2.666        -13.077
  -2.663        -13.079
  -2.661        -13.080
  -2.659        -13.081
  -2.657        -13.083
  -2.655        -13.084
  -2.653        -13.085
  -2.650        -13.087
  -2.648        -13.088
  -2.646        -13.090
  -2.644        -13.091
  -2.642        -13.093
  -2.640        -13.094
  -2.637        -13.096
  -2.635        -13.098
  -2.633        -13.100
  -2.631        -13.101
  -2.629        -13.103
  -2.626        -13.105
  -2.624        -13.107
  -2.622        -13.109
  -2.620        -13.110
  -2.618        -13.113
  -2.616        -13.115
  -2.614        -13.117
  -2.611        -13.119
  -2.609        -13.121
  -2.607        -13.123
  -2.605        -13.125
  -2.603        -13.128
  -2.600        -13.130
  -2.598        -13.132
  -2.596        -13.135
  -2.594        -13.137
  -2.592        -13.139
  -2.590        -13.142
  -2.587        -13.145
  -2.585        -13.147
  -2.583        -13.150
  -2.581        -13.152
  -2.579        -13.155
  -2.577        -13.158
  -2.574        -13.161
  -2.572        -13.164
  -2.570        -13.166
  -2.568        -13.169
  -2.566        -13.172
  -2.564        -13.175
  -2.561        -13.178
  -2.559        -13.182
  -2.557        -13.185
  -2.555        -13.188
  -2.553        -13.191
  -2.551        -13.194
  -2.548        -13.198
  -2.546        -13.201
  -2.544        -13.205
  -2.542        -13.208
  -2.540        -13.212
  -2.538        -13.215
  -2.535        -13.219
  -2.533        -13.223
  -2.531        -13.226
  -2.529        -13.230
  -2.527        -13.234
  -2.525        -13.238
  -2.522        -13.242
  -2.520        -13.246
  -2.518        -13.250
  -2.516        -13.254
  -2.514        -13.258
  -2.511        -13.262
  -2.509        -13.266
  -2.507        -13.271
  -2.505        -13.275
  -2.503        -13.279
  -2.501        -13.284
  -2.498        -13.288
  -2.496        -13.293
  -2.494        -13.298
  -2.492        -13.302
  -2.490        -13.307
  -2.488        -13.312
  -2.485        -13.317
  -2.483        -13.321
  -2.481        -13.326
  -2.479        -13.331
  -2.477        -13.336
  -2.475        -13.341
  -2.472        -13.347
  -2.470        -13.352
  -2.468        -13.357
  -2.466        -13.363
  -2.464        -13.368
  -2.462        -13.373
  -2.459        -13.379
  -2.457        -13.384
  -2.455        -13.390
  -2.453        -13.396
  -2.451        -13.401
  -2.448        -13.407
  -2.446        -13.413
  -2.444        -13.419
  -2.442        -13.425
  -2.440        -13.431
  -2.438        -13.437
  -2.435        -13.443
  -2.433        -13.450
  -2.431        -13.456
  -2.429        -13.462
  -2.427        -13.469
  -2.425        -13.475
  -2.422        -13.482
  -2.420        -13.488
  -2.418        -13.495
  -2.416        -13.502
  -2.414        -13.509
  -2.412        -13.515
  -2.409        -13.522
  -2.407        -13.529
  -2.405        -13.536
  -2.403        -13.544
  -2.401        -13.551
  -2.398        -13.558
  -2.396        -13.565
  -2.394        -13.573
  -2.392        -13.580
  -2.390        -13.588
  -2.388        -13.596
  -2.386        -13.603
  -2.383        -13.611
  -2.381        -13.619
  -2.379        -13.627
  -2.377        -13.635
  -2.375        -13.643
  -2.372        -13.651
  -2.370        -13.659
  -2.368        -13.667
  -2.366        -13.676
  -2.364        -13.684
  -2.362        -13.693
  -2.359        -13.701
  -2.357        -13.710
  -2.355        -13.719
  -2.353        -13.727
  -2.351        -13.736
  -2.349        -13.745
  -2.346        -13.754
  -2.344        -13.763
  -2.342        -13.772
  -2.340        -13.782
  -2.338        -13.791
  -2.336        -13.801
  -2.333        -13.810
  -2.331        -13.820
  -2.329        -13.829
  -2.327        -13.839
  -2.325        -13.849
  -2.323        -13.859
  -2.320        -13.869
  -2.318        -13.879
  -2.316        -13.889
  -2.314        -13.899
  -2.312        -13.909
  -2.309        -13.920
  -2.307        -13.930
  -2.305        -13.941
  -2.303        -13.952
  -2.301        -13.962
  -2.299        -13.973
  -2.297        -13.984
  -2.294        -13.995
  -2.292        -14.006
  -2.290        -14.017
  -2.288        -14.028
  -2.286        -14.040
  -2.283        -14.051
  -2.281        -14.063
  -2.279        -14.074
  -2.277        -14.086
  -2.275        -14.098
  -2.273        -14.110
  -2.270        -14.122
  -2.268        -14.134
  -2.266        -14.146
  -2.264        -14.158
  -2.262        -14.171
  -2.260        -14.183
  -2.257        -14.195
  -2.255        -14.208
  -2.253        -14.221
  -2.251        -14.234
  -2.249        -14.247
  -2.247        -14.260
  -2.244        -14.273
  -2.242        -14.286
  -2.240        -14.299
  -2.238        -14.313
  -2.236        -14.326
  -2.234        -14.340
  -2.231        -14.354
  -2.229        -14.368
  -2.227        -14.382
  -2.225        -14.396
  -2.223        -14.410
  -2.220        -14.424
  -2.218        -14.438
  -2.216        -14.453
  -2.214        -14.467
  -2.212        -14.482
  -2.210        -14.497
  -2.207        -14.512
  -2.205        -14.526
  -2.203        -14.541
  -2.201        -14.557
  -2.199        -14.572
  -2.197        -14.587
  -2.194        -14.603
  -2.192        -14.619
  -2.190        -14.634
  -2.188        -14.650
  -2.186        -14.666
  -2.184        -14.682
  -2.181        -14.698
  -2.179        -14.715
  -2.177        -14.731
  -2.175        -14.748
  -2.173        -14.764
  -2.171        -14.781
  -2.168        -14.798
  -2.166        -14.815
  -2.164        -14.832
  -2.162        -14.849
  -2.160        -14.867
  -2.158        -14.884
  -2.155        -14.902
  -2.153        -14.919
  -2.151        -14.937
  -2.149        -14.955
  -2.147        -14.973
  -2.145        -14.991
  -2.142        -15.010
  -2.140        -15.028
  -2.138        -15.047
  -2.136        -15.066
  -2.134        -15.084
  -2.131        -15.103
  -2.129        -15.122
  -2.127        -15.141
  -2.125        -15.161
  -2.123        -15.180
  -2.121        -15.200
  -2.118        -15.220
  -2.116        -15.240
  -2.114        -15.260
  -2.112        -15.280
  -2.110        -15.300
  -2.108        -15.320
  -2.105        -15.341
  -2.103        -15.361
  -2.101        -15.382
  -2.099        -15.403
  -2.097        -15.424
  -2.095        -15.445
  -2.092        -15.467
  -2.090        -15.488
  -2.088        -15.510
  -2.086        -15.532
  -2.084        -15.553
  -2.082        -15.576
  -2.079        -15.598
  -2.077        -15.620
  -2.075        -15.643
  -2.073        -15.665
  -2.071        -15.688
  -2.069        -15.711
  -2.066        -15.734
  -2.064        -15.757
  -2.062        -15.780
  -2.060        -15.804
  -2.058        -15.827
  -2.056        -15.851
  -2.053        -15.875
  -2.051        -15.899
  -2.049        -15.924
  -2.047        -15.948
  -2.045        -15.972
  -2.043        -15.997
  -2.040        -16.022
  -2.038        -16.047
  -2.036        -16.072
  -2.034        -16.098
  -2.032        -16.123
  -2.029        -16.149
  -2.027        -16.174
  -2.025        -16.200
  -2.023        -16.226
  -2.021        -16.253
  -2.019        -16.279
  -2.016        -16.306
  -2.014        -16.332
  -2.012        -16.359
  -2.010        -16.386
  -2.008        -16.413
  -2.006        -16.441
  -2.003        -16.469
  -2.001        -16.496
  -1.999        -16.524
  -1.997        -16.552
  -1.995        -16.580
  -1.993        -16.608
  -1.990        -16.637
  -1.988        -16.665
  -1.986        -16.694
  -1.984        -16.723
  -1.982        -16.752
  -1.980        -16.781
  -1.977        -16.811
  -1.975        -16.840
  -1.973        -16.870
  -1.971        -16.900
  -1.969        -16.930
  -1.967        -16.960
  -1.964        -16.991
  -1.962        -17.021
  -1.960        -17.052
  -1.958        -17.082
  -1.956        -17.113
  -1.953        -17.144
  -1.951        -17.175
  -1.949        -17.207
  -1.947        -17.238
  -1.945        -17.269
  -1.943        -17.301
  -1.940        -17.333
  -1.938        -17.364
  -1.936        -17.396
  -1.934        -17.428
  -1.932        -17.460
  -1.930        -17.492
  -1.927        -17.524
  -1.925        -17.556
  -1.923        -17.588
  -1.921        -17.620
  -1.919        -17.652
  -1.917        -17.685
  -1.914        -17.717
  -1.912        -17.749
  -1.910        -17.780
  -1.908        -17.812
  -1.906        -17.844
  -1.904        -17.875
  -1.901        -17.906
  -1.899        -17.937
  -1.897        -17.968
  -1.895        -17.999
  -1.893        -18.029
  -1.891        -18.059
  -1.888        -18.088
  -1.886        -18.117
  -1.884        -18.146
  -1.882        -18.174
  -1.880        -18.202
  -1.877        -18.229
  -1.875        -18.255
  -1.873        -18.281
  -1.871        -18.306
  -1.869        -18.331
  -1.867        -18.355
  -1.864        -18.378
  -1.862        -18.400
  -1.860        -18.422
  -1.858        -18.442
  -1.856        -18.462
  -1.853        -18.481
  -1.851        -18.499
  -1.849        -18.516
  -1.847        -18.533
  -1.845        -18.548
  -1.843        -18.563
  -1.841        -18.577
  -1.838        -18.590
  -1.836        -18.602
  -1.834        -18.614
  -1.832        -18.625
  -1.830        -18.635
  -1.828        -18.645
  -1.825        -18.653
  -1.823        -18.662
  -1.821        -18.669
  -1.819        -18.677
  -1.817        -18.683
  -1.815        -18.690
  -1.812        -18.695
  -1.810        -18.701
  -1.808        -18.706
  -1.806        -18.710
  -1.804        -18.715
  -1.801        -18.718
  -1.799        -18.722
  -1.797        -18.725
  -1.795        -18.729
  -1.793        -18.731
  -1.791        -18.734
  -1.788        -18.737
  -1.786        -18.739
  -1.784        -18.742
  -1.782        -18.744
  -1.780        -18.745
  -1.777        -18.748
  -1.775        -18.749
  -1.773        -18.751
  -1.771        -18.752
  -1.769        -18.754
  -1.767        -18.755
  -1.764        -18.757
  -1.763        -18.758
  -1.760        -18.759
  -1.758        -18.761
  -1.756        -18.762
  -1.754        -18.763
  -1.752        -18.764
  -1.749        -18.765
  -1.747        -18.766
  -1.745        -18.767
  -1.743        -18.768
  -1.741        -18.769
  -1.739        -18.770
  -1.736        -18.771
  -1.734        -18.772
  -1.732        -18.773
  -1.730        -18.774
  -1.728        -18.775
  -1.726        -18.776
  -1.723        -18.777
  -1.721        -18.778
  -1.719        -18.779
  -1.717        -18.779
  -1.715        -18.781
  -1.713        -18.781
  -1.710        -18.782
  -1.708        -18.783
  -1.706        -18.784
  -1.704        -18.785
  -1.702        -18.786
  -1.699        -18.787
  -1.697        -18.787
  -1.695        -18.788
  -1.693        -18.789
  -1.691        -18.790
  -1.689        -18.791
  -1.686        -18.792
  -1.684        -18.793
  -1.682        -18.794
  -1.680        -18.794
  -1.678        -18.795
  -1.675        -18.796
  -1.673        -18.797
  -1.671        -18.798
  -1.669        -18.799
  -1.667        -18.799
  -1.665        -18.801
  -1.663        -18.801
  -1.660        -18.802
  -1.658        -18.803
  -1.656        -18.804
  -1.654        -18.805
  -1.652        -18.806
  -1.650        -18.806
  -1.647        -18.807
  -1.645        -18.808
  -1.643        -18.809
  -1.641        -18.810
  -1.639        -18.811
  -1.637        -18.811
  -1.634        -18.812
  -1.632        -18.813
  -1.630        -18.814
  -1.628        -18.815
  -1.626        -18.816
  -1.623        -18.817
  -1.621        -18.817
  -1.619        -18.818
  -1.617        -18.819
  -1.615        -18.820
  -1.613        -18.821
  -1.611        -18.822
  -1.608        -18.823
  -1.606        -18.823
  -1.604        -18.824
  -1.602        -18.825
  -1.600        -18.826
  -1.597        -18.827
  -1.595        -18.827
  -1.593        -18.828
  -1.591        -18.829
  -1.589        -18.830
  -1.587        -18.831
  -1.584        -18.832
  -1.582        -18.833
  -1.580        -18.834
  -1.578        -18.834
  -1.576        -18.835
  -1.573        -18.836
  -1.571        -18.837
  -1.569        -18.838
  -1.567        -18.839
  -1.565        -18.839
  -1.563        -18.841
  -1.561        -18.841
  -1.558        -18.842
  -1.556        -18.843
  -1.554        -18.844
  -1.552        -18.845
  -1.550        -18.846
  -1.547        -18.846
  -1.545        -18.847
  -1.543        -18.848
  -1.541        -18.849
  -1.539        -18.850
  -1.537        -18.851
  -1.534        -18.851
  -1.532        -18.852
  -1.530        -18.853
  -1.528        -18.854
  -1.526        -18.855
  -1.524        -18.856
  -1.522        -18.856
  -1.519        -18.857
  -1.517        -18.858
  -1.515        -18.859
  -1.513        -18.860
  -1.511        -18.860
  -1.508        -18.861
  -1.506        -18.862
  -1.504        -18.863
  -1.502        -18.864
  -1.500        -18.865
  -1.498        -18.865
  -1.495        -18.866
  -1.493        -18.867
  -1.491        -18.868
  -1.489        -18.869
  -1.487        -18.870
  -1.484        -18.871
  -1.482        -18.872
  -1.480        -18.872
  -1.478        -18.873
  -1.476        -18.874
  -1.474        -18.875
  -1.472        -18.876
  -1.469        -18.877
  -1.467        -18.878
  -1.465        -18.878
  -1.463        -18.879
  -1.461        -18.880
  -1.458        -18.881
  -1.456        -18.881
  -1.454        -18.882
  -1.452        -18.883
  -1.450        -18.884
  -1.448        -18.885
  -1.445        -18.886
  -1.443        -18.887
  -1.441        -18.887
  -1.439        -18.888
  -1.437        -18.889
  -1.435        -18.890
  -1.432        -18.891
  -1.430        -18.892
  -1.428        -18.893
  -1.426        -18.893
  -1.424        -18.894
  -1.422        -18.895
  -1.419        -18.896
  -1.417        -18.897
  -1.415        -18.898
  -1.413        -18.898
  -1.411        -18.899
  -1.409        -18.900
  -1.406        -18.901
  -1.404        -18.902
  -1.402        -18.903
  -1.400        -18.903
  -1.398        -18.904
  -1.396        -18.905
  -1.393        -18.906
  -1.391        -18.907
  -1.389        -18.908
  -1.387        -18.909
  -1.385        -18.910
  -1.383        -18.910
  -1.380        -18.911
  -1.378        -18.912
  -1.376        -18.913
  -1.374        -18.914
  -1.372        -18.915
  -1.370        -18.915
  -1.367        -18.916
  -1.365        -18.917
  -1.363        -18.918
  -1.361        -18.919
  -1.359        -18.920
  -1.356        -18.920
  -1.354        -18.922
  -1.352        -18.922
  -1.350        -18.923
  -1.348        -18.924
  -1.346        -18.925
  -1.343        -18.926
  -1.341        -18.927
  -1.339        -18.927
  -1.337        -18.928
  -1.335        -18.929
  -1.333        -18.930
  -1.330        -18.931
  -1.328        -18.932
  -1.326        -18.933
  -1.324        -18.933
  -1.322        -18.934
  -1.320        -18.935
  -1.317        -18.936
  -1.315        -18.937
  -1.313        -18.938
  -1.311        -18.939
  -1.309        -18.940
  -1.307        -18.941
  -1.304        -18.942
  -1.302        -18.942
  -1.300        -18.943
  -1.298        -18.944
  -1.296        -18.945
  -1.293        -18.946
  -1.291        -18.947
  -1.289        -18.948
  -1.287        -18.949
  -1.285        -18.950
  -1.283        -18.950
  -1.280        -18.951
  -1.278        -18.952
  -1.276        -18.953
  -1.274        -18.954
  -1.272        -18.955
  -1.270        -18.956
  -1.267        -18.957
  -1.265        -18.958
  -1.263        -18.959
  -1.261        -18.960
  -1.259        -18.960
  -1.257        -18.961
  -1.254        -18.962
  -1.252        -18.963
  -1.250        -18.964
  -1.248        -18.965
  -1.246        -18.966
  -1.243        -18.967
  -1.241        -18.968
  -1.239        -18.969
  -1.237        -18.970
  -1.235        -18.971
  -1.233        -18.972
  -1.231        -18.973
  -1.228        -18.974
  -1.226        -18.975
  -1.224        -18.976
  -1.222        -18.977
  -1.220        -18.978
  -1.217        -18.978
  -1.215        -18.980
  -1.213        -18.981
  -1.211        -18.982
  -1.209        -18.983
  -1.207        -18.984
  -1.204        -18.985
  -1.202        -18.986
  -1.200        -18.987
  -1.198        -18.988
  -1.196        -18.989
  -1.194        -18.990
  -1.191        -18.991
  -1.189        -18.992
  -1.187        -18.993
  -1.185        -18.994
  -1.183        -18.995
  -1.181        -18.996
  -1.178        -18.997
  -1.176        -18.998
  -1.174        -19.000
  -1.172        -19.001
  -1.170        -19.002
  -1.168        -19.003
  -1.165        -19.004
  -1.163        -19.005
  -1.161        -19.006
  -1.159        -19.007
  -1.157        -19.009
  -1.155        -19.010
  -1.152        -19.011
  -1.150        -19.012
  -1.148        -19.013
  -1.146        -19.015
  -1.144        -19.016
  -1.142        -19.017
  -1.139        -19.018
  -1.137        -19.020
  -1.135        -19.021
  -1.133        -19.022
  -1.131        -19.023
  -1.129        -19.025
  -1.126        -19.026
  -1.124        -19.028
  -1.122        -19.029
  -1.120        -19.030
  -1.118        -19.031
  -1.115        -19.033
  -1.113        -19.034
  -1.111        -19.036
  -1.109        -19.037
  -1.107        -19.038
  -1.105        -19.040
  -1.102        -19.041
  -1.100        -19.043
  -1.098        -19.044
  -1.096        -19.045
  -1.094        -19.047
  -1.092        -19.048
  -1.089        -19.050
  -1.087        -19.051
  -1.085        -19.053
  -1.083        -19.055
  -1.081        -19.056
  -1.079        -19.058
  -1.076        -19.059
  -1.074        -19.061
  -1.072        -19.062
  -1.070        -19.064
  -1.068        -19.066
  -1.066        -19.067
  -1.063        -19.069
  -1.061        -19.071
  -1.059        -19.072
  -1.057        -19.074
  -1.055        -19.076
  -1.052        -19.078
  -1.050        -19.079
  -1.048        -19.081
  -1.046        -19.083
  -1.044        -19.085
  -1.042        -19.087
  -1.039        -19.089
  -1.037        -19.091
  -1.035        -19.093
  -1.033        -19.095
  -1.031        -19.097
  -1.029        -19.099
  -1.026        -19.101
  -1.024        -19.103
  -1.022        -19.105
  -1.020        -19.107
  -1.018        -19.109
  -1.016        -19.111
  -1.013        -19.113
  -1.011        -19.115
  -1.009        -19.117
  -1.007        -19.119
  -1.005        -19.122
  -1.003        -19.124
  -1.000        -19.126
  -0.998        -19.128
  -0.996        -19.130
  -0.994        -19.132
  -0.992        -19.135
  -0.990        -19.137
  -0.987        -19.139
  -0.985        -19.141
  -0.983        -19.143
  -0.981        -19.145
  -0.979        -19.147
  -0.977        -19.150
  -0.974        -19.152
  -0.972        -19.154
  -0.970        -19.156
  -0.968        -19.158
  -0.966        -19.160
  -0.963        -19.162
  -0.961        -19.164
  -0.959        -19.166
  -0.957        -19.168
  -0.955        -19.170
  -0.953        -19.172
  -0.950        -19.174
  -0.948        -19.176
  -0.946        -19.178
  -0.944        -19.180
  -0.942        -19.182
  -0.940        -19.184
  -0.937        -19.186
  -0.935        -19.188
  -0.933        -19.190
  -0.931        -19.192
  -0.929        -19.194
  -0.927        -19.196
  -0.924        -19.198
  -0.922        -19.199
  -0.920        -19.201
  -0.918        -19.203
  -0.916        -19.205
  -0.914        -19.207
  -0.911        -19.208
  -0.909        -19.210
  -0.907        -19.212
  -0.905        -19.214
  -0.903        -19.215
  -0.900        -19.217
  -0.898        -19.219
  -0.896        -19.221
  -0.894        -19.222
  -0.892        -19.224
  -0.890        -19.226
  -0.887        -19.227
  -0.885        -19.229
  -0.883        -19.231
  -0.881        -19.232
  -0.879        -19.234
  -0.877        -19.235
  -0.874        -19.237
  -0.872        -19.238
  -0.870        -19.240
  -0.868        -19.242
  -0.866        -19.243
  -0.864        -19.244
  -0.862        -19.246
  -0.859        -19.248
  -0.857        -19.249
  -0.855        -19.250
  -0.853        -19.252
  -0.851        -19.253
  -0.848        -19.254
  -0.846        -19.256
  -0.844        -19.257
  -0.842        -19.258
  -0.840        -19.260
  -0.838        -19.261
  -0.835        -19.262
  -0.833        -19.263
  -0.831        -19.264
  -0.829        -19.266
  -0.827        -19.266
  -0.825        -19.268
  -0.822        -19.269
  -0.820        -19.270
  -0.818        -19.271
  -0.816        -19.272
  -0.814        -19.273
  -0.812        -19.274
  -0.809        -19.275
  -0.807        -19.276
  -0.805        -19.277
  -0.803        -19.278
  -0.801        -19.279
  -0.799        -19.280
  -0.796        -19.281
  -0.794        -19.282
  -0.792        -19.283
  -0.790        -19.283
  -0.788        -19.284
  -0.785        -19.285
  -0.783        -19.286
  -0.781        -19.287
  -0.779        -19.288
  -0.777        -19.288
  -0.774        -19.289
  -0.772        -19.289
  -0.770        -19.290
  -0.768        -19.291
  -0.766        -19.292
  -0.764        -19.292
  -0.762        -19.293
  -0.759        -19.293
  -0.757        -19.294
  -0.755        -19.294
  -0.753        -19.295
  -0.751        -19.295
  -0.748        -19.296
  -0.746        -19.296
  -0.744        -19.297
  -0.742        -19.297
  -0.740        -19.297
  -0.738        -19.298
  -0.736        -19.298
  -0.733        -19.298
  -0.731        -19.299
  -0.729        -19.299
  -0.727        -19.299
  -0.725        -19.299
  -0.723        -19.299
  -0.720        -19.300
  -0.718        -19.300
  -0.716        -19.300
  -0.714        -19.300
  -0.712        -19.300
  -0.709        -19.301
  -0.707        -19.300
  -0.705        -19.301
  -0.703        -19.300
  -0.701        -19.301
  -0.699        -19.301
  -0.697        -19.301
  -0.694        -19.301
  -0.692        -19.301
  -0.690        -19.301
  -0.688        -19.301
  -0.685        -19.301
  -0.683        -19.301
  -0.681        -19.300
  -0.679        -19.300
  -0.677        -19.300
  -0.675        -19.300
  -0.673        -19.300
  -0.670        -19.299
  -0.668        -19.299
  -0.666        -19.299
  -0.664        -19.299
  -0.662        -19.299
  -0.659        -19.299
  -0.657        -19.298
  -0.655        -19.298
  -0.653        -19.298
  -0.651        -19.297
  -0.649        -19.297
  -0.647        -19.297
  -0.644        -19.296
  -0.642        -19.296
  -0.640        -19.295
  -0.638        -19.295
  -0.636        -19.295
  -0.633        -19.294
  -0.631        -19.294
  -0.629        -19.293
  -0.627        -19.293
  -0.625        -19.292
  -0.623        -19.292
  -0.621        -19.291
  -0.618        -19.291
  -0.616        -19.290
  -0.614        -19.290
  -0.612        -19.289
  -0.610        -19.289
  -0.608        -19.288
  -0.605        -19.287
  -0.603        -19.287
  -0.601        -19.286
  -0.599        -19.285
  -0.596        -19.285
  -0.594        -19.284
  -0.592        -19.283
  -0.590        -19.283
  -0.588        -19.282
  -0.586        -19.281
  -0.584        -19.280
  -0.581        -19.280
  -0.579        -19.279
  -0.577        -19.278
  -0.575        -19.277
  -0.573        -19.277
  -0.571        -19.276
  -0.568        -19.275
  -0.566        -19.274
  -0.564        -19.273
  -0.562        -19.273
  -0.560        -19.272
  -0.557        -19.271
  -0.555        -19.270
  -0.553        -19.269
  -0.551        -19.269
  -0.549        -19.268
  -0.547        -19.267
  -0.544        -19.266
  -0.542        -19.266
  -0.540        -19.265
  -0.538        -19.264
  -0.536        -19.263
  -0.534        -19.262
  -0.531        -19.262
  -0.529        -19.261
  -0.527        -19.260
  -0.525        -19.259
  -0.523        -19.258
  -0.521        -19.257
  -0.518        -19.257
  -0.516        -19.256
  -0.514        -19.255
  -0.512        -19.254
  -0.510        -19.253
  -0.507        -19.252
  -0.505        -19.251
  -0.503        -19.250
  -0.501        -19.250
  -0.499        -19.249
  -0.497        -19.248
  -0.495        -19.247
  -0.492        -19.246
  -0.490        -19.245
  -0.488        -19.244
  -0.486        -19.243
  -0.484        -19.242
  -0.482        -19.241
  -0.479        -19.240
  -0.477        -19.240
  -0.475        -19.239
  -0.473        -19.238
  -0.471        -19.237
  -0.468        -19.236
  -0.466        -19.235
  -0.464        -19.234
  -0.462        -19.233
  -0.460        -19.232
  -0.458        -19.231
  -0.455        -19.230
  -0.453        -19.229
  -0.451        -19.228
  -0.449        -19.227
  -0.447        -19.227
  -0.445        -19.226
  -0.442        -19.225
  -0.440        -19.224
  -0.438        -19.223
  -0.436        -19.222
  -0.434        -19.221
  -0.432        -19.220
  -0.429        -19.219
  -0.427        -19.218
  -0.425        -19.217
  -0.423        -19.216
  -0.421        -19.215
  -0.419        -19.214
  -0.416        -19.213
  -0.414        -19.212
  -0.412        -19.211
  -0.410        -19.210
  -0.408        -19.209
  -0.405        -19.208
  -0.403        -19.207
  -0.401        -19.206
  -0.399        -19.205
  -0.397        -19.204
  -0.395        -19.203
  -0.392        -19.202
  -0.390        -19.201
  -0.388        -19.200
  -0.386        -19.199
  -0.384        -19.198
  -0.382        -19.197
  -0.379        -19.196
  -0.377        -19.195
  -0.375        -19.194
  -0.373        -19.193
  -0.371        -19.192
  -0.369        -19.191
  -0.366        -19.190
  -0.364        -19.189
  -0.362        -19.188
  -0.360        -19.187
  -0.358        -19.186
  -0.356        -19.185
  -0.353        -19.184
  -0.351        -19.183
  -0.349        -19.182
  -0.347        -19.181
  -0.345        -19.180
  -0.343        -19.179
  -0.340        -19.178
  -0.338        -19.177
  -0.336        -19.175
  -0.334        -19.174
  -0.332        -19.173
  -0.330        -19.172
  -0.327        -19.171
  -0.325        -19.170
  -0.323        -19.169
  -0.321        -19.168
  -0.319        -19.167
  -0.316        -19.166
  -0.314        -19.165
  -0.312        -19.164
  -0.310        -19.163
  -0.308        -19.162
  -0.306        -19.161
  -0.303        -19.160
  -0.301        -19.159
  -0.299        -19.158
  -0.297        -19.157
  -0.295        -19.157
  -0.293        -19.156
  -0.290        -19.155
  -0.288        -19.155
  -0.286        -19.154
  -0.284        -19.153
  -0.282        -19.152
  -0.280        -19.152
  -0.277        -19.151
  -0.275        -19.150
  -0.273        -19.150
  -0.271        -19.150
  -0.269        -19.149
  -0.267        -19.149
  -0.264        -19.148
  -0.262        -19.147
  -0.260        -19.147
  -0.258        -19.146
  -0.256        -19.146
  -0.253        -19.146
  -0.251        -19.145
  -0.249        -19.145
  -0.247        -19.144
  -0.245        -19.144
  -0.243        -19.143
  -0.241        -19.143
  -0.238        -19.143
  -0.236        -19.142
  -0.234        -19.142
  -0.232        -19.142
  -0.230        -19.141
  -0.227        -19.141
  -0.225        -19.141
  -0.223        -19.140
  -0.221        -19.140
  -0.219        -19.140
  -0.217        -19.140
  -0.214        -19.140
  -0.212        -19.139
  -0.210        -19.139
  -0.208        -19.139
  -0.206        -19.139
  -0.204        -19.139
  -0.201        -19.138
  -0.199        -19.138
  -0.197        -19.138
  -0.195        -19.138
  -0.193        -19.138
  -0.191        -19.138
  -0.188        -19.138
  -0.186        -19.138
  -0.184        -19.138
  -0.182        -19.138
  -0.180        -19.138
  -0.178        -19.138
  -0.175        -19.138
  -0.173        -19.139
  -0.171        -19.139
  -0.169        -19.139
  -0.167        -19.139
  -0.164        -19.139
  -0.162        -19.139
  -0.160        -19.140
  -0.158        -19.140
  -0.156        -19.140
  -0.154        -19.140
  -0.151        -19.141
  -0.149        -19.141
  -0.147        -19.142
  -0.145        -19.142
  -0.143        -19.142
  -0.141        -19.143
  -0.138        -19.143
  -0.136        -19.143
  -0.134        -19.143
  -0.132        -19.144
  -0.130        -19.144
  -0.128        -19.144
  -0.125        -19.145
  -0.123        -19.145
  -0.121        -19.146
  -0.119        -19.146
  -0.117        -19.146
  -0.115        -19.147
  -0.112        -19.147
  -0.110        -19.147
  -0.108        -19.147
  -0.106        -19.148
  -0.104        -19.148
  -0.102        -19.148
  -0.099        -19.148
  -0.097        -19.148
  -0.095        -19.149
  -0.093        -19.149
  -0.091        -19.149
  -0.089        -19.149
  -0.086        -19.150
  -0.084        -19.150
  -0.082        -19.150
  -0.080        -19.150
  -0.078        -19.150
  -0.075        -19.150
  -0.073        -19.151
  -0.071        -19.151
  -0.069        -19.151
  -0.067        -19.151
  -0.065        -19.152
  -0.063        -19.152
  -0.060        -19.152
  -0.058        -19.153
  -0.056        -19.153
  -0.054        -19.153
  -0.052        -19.154
  -0.049        -19.154
  -0.047        -19.154
  -0.045        -19.155
  -0.043        -19.155
  -0.041        -19.155
  -0.039        -19.156
  -0.036        -19.156
  -0.034        -19.157
  -0.032        -19.157
  -0.030        -19.157
  -0.028        -19.158
  -0.026        -19.158
  -0.023        -19.158
  -0.021        -19.159
  -0.019        -19.159
  -0.017        -19.160
  -0.015        -19.160
  -0.013        -19.160
  -0.010        -19.161
  -0.008        -19.161
  -0.006        -19.161
  -0.004        -19.162
  -0.002        -19.162
   0.000        -19.163
   0.003        -19.163
   0.005        -19.163
   0.007        -19.164
   0.009        -19.164
   0.011        -19.164
   0.013        -19.165
   0.016        -19.165
   0.018        -19.166
   0.020        -19.166
   0.022        -19.166
   0.024        -19.167
   0.027        -19.167
   0.029        -19.167
   0.031        -19.168
   0.033        -19.168
   0.035        -19.169
   0.037        -19.169
   0.040        -19.169
   0.042        -19.170
   0.044        -19.170
   0.046        -19.171
   0.048        -19.171
   0.050        -19.172
   0.053        -19.172
   0.055        -19.172
   0.057        -19.173
   0.059        -19.173
   0.061        -19.174
   0.063        -19.174
   0.066        -19.175
   0.068        -19.175
   0.070        -19.176
   0.072        -19.176
   0.074        -19.176
   0.076        -19.177
   0.079        -19.177
   0.081        -19.177
   0.083        -19.178
   0.085        -19.178
   0.087        -19.179
   0.089        -19.179
   0.092        -19.179
   0.094        -19.179
   0.096        -19.180
   0.098        -19.180
   0.100        -19.181
   0.103        -19.181
   0.105        -19.181
   0.107        -19.182
   0.109        -19.182
   0.111        -19.183
   0.113        -19.183
   0.116        -19.184
   0.118        -19.184
   0.120        -19.185
   0.122        -19.185
   0.124        -19.185
   0.126        -19.186
   0.128        -19.186
   0.131        -19.186
   0.133        -19.187
   0.135        -19.188
   0.137        -19.188
   0.139        -19.188
   0.142        -19.189
   0.144        -19.189
   0.146        -19.189
   0.148        -19.190
   0.150        -19.190
   0.153        -19.191
   0.155        -19.191
   0.157        -19.191
   0.159        -19.191
   0.161        -19.192
   0.163        -19.192
   0.165        -19.193
   0.168        -19.193
   0.170        -19.193
   0.172        -19.194
   0.174        -19.194
   0.176        -19.194
   0.178        -19.195
   0.181        -19.195
   0.183        -19.196
   0.185        -19.196
   0.187        -19.197
   0.189        -19.197
   0.192        -19.198
   0.194        -19.198
   0.196        -19.198
   0.198        -19.199
   0.200        -19.199
   0.202        -19.200
   0.205        -19.200
   0.207        -19.200
   0.209        -19.201
   0.211        -19.201
   0.213        -19.202
   0.215        -19.202
   0.218        -19.203
   0.220        -19.203
   0.222        -19.203
   0.224        -19.204
   0.226        -19.204
   0.229        -19.205
   0.231        -19.205
   0.233        -19.206
   0.235        -19.206
   0.237        -19.206
   0.239        -19.207
   0.241        -19.207
   0.244        -19.208
   0.246        -19.209
   0.248        -19.209
   0.250        -19.209
   0.252        -19.210
   0.254        -19.211
   0.257        -19.211
   0.259        -19.212
   0.261        -19.212
   0.263        -19.213
   0.265        -19.213
   0.267        -19.214
   0.270        -19.214
   0.272        -19.215
   0.274        -19.216
   0.276        -19.216
   0.278        -19.217
   0.281        -19.217
   0.283        -19.218
   0.285        -19.218
   0.287        -19.219
   0.289        -19.220
   0.291        -19.221
   0.293        -19.221
   0.296        -19.222
   0.298        -19.222
   0.300        -19.223
   0.302        -19.224
   0.305        -19.225
   0.307        -19.225
   0.309        -19.226
   0.311        -19.227
   0.313        -19.228
   0.315        -19.229
   0.318        -19.230
   0.320        -19.230
   0.322        -19.231
   0.324        -19.232
   0.326        -19.233
   0.328        -19.234
   0.330        -19.234
   0.333        -19.235
   0.335        -19.236
   0.337        -19.237
   0.339        -19.238
   0.341        -19.239
   0.344        -19.240
   0.346        -19.240
   0.348        -19.241
   0.350        -19.242
   0.352        -19.243
   0.354        -19.244
   0.356        -19.245
   0.359        -19.246
   0.361        -19.247
   0.363        -19.248
   0.365        -19.249
   0.367        -19.249
   0.369        -19.250
   0.372        -19.251
   0.374        -19.252
   0.376        -19.253
   0.378        -19.254
   0.380        -19.255
   0.383        -19.256
   0.385        -19.257
   0.387        -19.258
   0.389        -19.259
   0.391        -19.260
   0.393        -19.261
   0.396        -19.262
   0.398        -19.263
   0.400        -19.265
   0.402        -19.266
   0.404        -19.267
   0.406        -19.268
   0.409        -19.269
   0.411        -19.271
   0.413        -19.272
   0.415        -19.274
   0.417        -19.275
   0.420        -19.277
   0.422        -19.278
   0.424        -19.279
   0.426        -19.281
   0.428        -19.283
   0.430        -19.284
   0.432        -19.285
   0.435        -19.287
   0.437        -19.289
   0.439        -19.290
   0.441        -19.292
   0.443        -19.293
   0.446        -19.295
   0.448        -19.296
   0.450        -19.298
   0.452        -19.300
   0.454        -19.302
   0.456        -19.303
   0.459        -19.305
   0.461        -19.307
   0.463        -19.309
   0.465        -19.310
   0.467        -19.312
   0.469        -19.314
   0.472        -19.315
   0.474        -19.317
   0.476        -19.319
   0.478        -19.320
   0.480        -19.322
   0.482        -19.324
   0.485        -19.325
   0.487        -19.327
   0.489        -19.328
   0.491        -19.329
   0.493        -19.329
   0.495        -19.330
   0.498        -19.330
   0.500        -19.331
   0.502        -19.331
   0.504        -19.332
   0.506        -19.332
   0.510        -19.333
   0.512        -19.333
   0.513        -19.333
   0.515        -19.333
   0.517        -19.333
   0.519        -19.332
   0.522        -19.332
   0.524        -19.332
   0.526        -19.332
   0.528        -19.332
   0.530        -19.332
   0.532        -19.332
   0.535        -19.332
   0.537        -19.332
   0.539        -19.332
   0.541        -19.333
   0.543        -19.333
   0.545        -19.333
   0.548        -19.333
   0.550        -19.333
   0.552        -19.333
   0.554        -19.334
   0.556        -19.334
   0.558        -19.334
   0.561        -19.334
   0.563        -19.335
   0.565        -19.335
   0.567        -19.335
   0.569        -19.335
   0.572        -19.336
   0.574        -19.336
   0.576        -19.336
   0.578        -19.336
   0.580        -19.337
   0.582        -19.337
   0.585        -19.337
   0.587        -19.338
   0.589        -19.338
   0.591        -19.338
   0.593        -19.339
   0.595        -19.339
   0.598        -19.339
   0.600        -19.340
   0.602        -19.340
   0.604        -19.340
   0.606        -19.341
   0.608        -19.341
   0.611        -19.342
   0.613        -19.342
   0.615        -19.342
   0.617        -19.343
   0.619        -19.343
   0.621        -19.343
   0.624        -19.344
   0.626        -19.344
   0.628        -19.345
   0.630        -19.345
   0.632        -19.345
   0.634        -19.346
   0.637        -19.346
   0.639        -19.346
   0.641        -19.347
   0.643        -19.347
   0.645        -19.347
   0.647        -19.348
   0.650        -19.348
   0.652        -19.349
   0.654        -19.349
   0.656        -19.349
   0.658        -19.350
   0.660        -19.350
   0.663        -19.351
   0.665        -19.351
   0.667        -19.352
   0.669        -19.352
   0.671        -19.352
   0.673        -19.353
   0.676        -19.353
   0.678        -19.354
   0.680        -19.354
   0.682        -19.355
   0.684        -19.355
   0.687        -19.356
   0.689        -19.356
   0.691        -19.357
   0.693        -19.357
   0.695        -19.358
   0.697        -19.358
   0.700        -19.359
   0.702        -19.360
   0.704        -19.361
   0.706        -19.361
   0.708        -19.362
   0.710        -19.363
   0.713        -19.364
   0.715        -19.364
   0.717        -19.365
   0.719        -19.366
   0.721        -19.367
   0.723        -19.368
   0.726        -19.369
   0.728        -19.370
   0.730        -19.371
   0.732        -19.372
   0.734        -19.373
   0.736        -19.374
   0.739        -19.375
   0.741        -19.376
   0.743        -19.377
   0.745        -19.378
   0.747        -19.380
   0.750        -19.381
   0.752        -19.382
   0.754        -19.383
   0.756        -19.384
   0.758        -19.385
   0.760        -19.386
   0.762        -19.387
   0.765        -19.389
   0.767        -19.390
   0.769        -19.391
   0.771        -19.392
   0.773        -19.394
   0.776        -19.395
   0.778        -19.396
   0.780        -19.398
   0.782        -19.399
   0.784        -19.401
   0.786        -19.402
   0.789        -19.404
   0.791        -19.405
   0.793        -19.407
   0.795        -19.409
   0.797        -19.410
   0.799        -19.412
   0.802        -19.414
   0.804        -19.416
   0.806        -19.418
   0.808        -19.419
   0.810        -19.422
   0.812        -19.423
   0.815        -19.425
   0.817        -19.427
   0.819        -19.429
   0.821        -19.431
   0.823        -19.433
   0.825        -19.436
   0.828        -19.438
   0.830        -19.440
   0.832        -19.442
   0.834        -19.445
   0.836        -19.447
   0.838        -19.449
   0.841        -19.451
   0.843        -19.454
   0.845        -19.456
   0.847        -19.459
   0.849        -19.461
   0.852        -19.464
   0.854        -19.466
   0.856        -19.469
   0.858        -19.471
   0.860        -19.474
   0.862        -19.476
   0.865        -19.479
   0.867        -19.482
   0.869        -19.484
   0.871        -19.487
   0.873        -19.489
   0.875        -19.492
   0.878        -19.495
   0.880        -19.497
   0.882        -19.500
   0.884        -19.503
   0.886        -19.506
   0.888        -19.509
   0.891        -19.512
   0.893        -19.516
   0.895        -19.519
   0.897        -19.522
   0.899        -19.526
   0.901        -19.529
   0.904        -19.532
   0.906        -19.536
   0.908        -19.540
   0.910        -19.544
   0.912        -19.548
   0.915        -19.552
   0.917        -19.556
   0.919        -19.560
   0.921        -19.564
   0.923        -19.567
   0.925        -19.571
   0.928        -19.576
   0.930        -19.581
   0.932        -19.586
   0.934        -19.590
   0.936        -19.595
   0.938        -19.600
   0.941        -19.605
   0.943        -19.610
   0.945        -19.615
   0.947        -19.620
   0.949        -19.626
   0.951        -19.633
   0.954        -19.639
   0.956        -19.646
   0.958        -19.652
   0.960        -19.659
   0.962        -19.665
   0.964        -19.672
   0.967        -19.679
   0.969        -19.685
   0.971        -19.690
   0.973        -19.695
   0.975        -19.700
   0.977        -19.705
   0.980        -19.711
   0.982        -19.716
   0.984        -19.721
   0.986        -19.726
   0.988        -19.734
   0.990        -19.742
   0.993        -19.748
   0.995        -19.754
   0.997        -19.760
   0.999        -19.766
   1.001        -19.772
   1.004        -19.778
   1.006        -19.784
   1.008        -19.790
   1.010        -19.797
   1.012        -19.808
   1.014        -19.820
   1.017        -19.831
   1.019        -19.842
   1.021        -19.854
   1.023        -19.865
   1.025        -19.876
   1.027        -19.888
   1.030        -19.899
   1.032        -19.914
   1.034        -19.930
   1.036        -19.946
   1.038        -19.963
   1.040        -19.979
   1.043        -19.995
   1.045        -20.011
   1.047        -20.028
   1.049        -20.044
   1.051        -20.062
   1.053        -20.086
   1.056        -20.112
   1.058        -20.138
   1.060        -20.164
   1.062        -20.190
   1.064        -20.215
   1.066        -20.241
   1.069        -20.267
   1.071        -20.293
   1.073        -20.332
   1.075        -20.383
   1.077        -20.435
   1.079        -20.487
   1.082        -20.538
   1.084        -20.590
   1.086        -20.641
   1.088        -20.693
   1.090        -20.745
   1.093        -20.796
   1.095        -20.845
   1.097        -20.892
   1.099        -20.940
   1.101        -20.988
   1.103        -21.036
   1.106        -21.083
   1.108        -21.131
   1.110        -21.179
   1.112        -21.233
   1.114        -21.262
   1.117        -21.265
   1.119        -21.268
   1.121        -21.271
   1.123        -21.274
   1.125        -21.277
   1.127        -21.280
   1.129        -21.283
   1.131        -21.286
   1.134        -21.290
   1.136        -21.292
   1.138        -21.295
   1.140        -21.298
   1.143        -21.301
   1.145        -21.304
   1.147        -21.307
   1.149        -21.309
   1.151        -21.312
   1.153        -21.315
   1.155        -21.318
   1.158        -21.321
   1.160        -21.323
   1.162        -21.326
   1.164        -21.329
   1.166        -21.331
   1.169        -21.334
   1.171        -21.337
   1.173        -21.339
   1.175        -21.342
   1.177        -21.345
   1.180        -21.348
   1.181        -21.350
   1.184        -21.353
   1.186        -21.356
   1.188        -21.359
   1.190        -21.361
   1.192        -21.364
   1.195        -21.367
   1.197        -21.369
   1.199        -21.372
   1.201        -21.375
   1.203        -21.377
   1.205        -21.380
   1.208        -21.383
   1.210        -21.386
   1.212        -21.389
   1.214        -21.391
   1.216        -21.394
   1.218        -21.397
   1.220        -21.399
   1.223        -21.402
   1.225        -21.405
   1.227        -21.408
   1.229        -21.410
   1.232        -21.413
   1.234        -21.416
   1.236        -21.419
   1.238        -21.421
   1.240        -21.424
   1.242        -21.427
   1.245        -21.430
   1.247        -21.432
   1.249        -21.435
   1.251        -21.438
   1.253        -21.440
   1.255        -21.443
   1.258        -21.446
   1.260        -21.449
   1.262        -21.452
   1.264        -21.454
   1.266        -21.458
   1.268        -21.461
   1.270        -21.463
   1.273        -21.466
   1.275        -21.469
   1.277        -21.472
   1.279        -21.475
   1.281        -21.478
   1.284        -21.482
   1.286        -21.485
   1.288        -21.488
   1.290        -21.491
   1.292        -21.494
   1.294        -21.497
   1.297        -21.501
   1.299        -21.504
   1.301        -21.507
   1.303        -21.511
   1.305        -21.514
   1.307        -21.517
   1.310        -21.520
   1.312        -21.524
   1.314        -21.527
   1.316        -21.531
   1.318        -21.534
   1.320        -21.537
   1.323        -21.541
   1.325        -21.544
   1.327        -21.548
   1.329        -21.551
   1.331        -21.555
   1.334        -21.558
   1.336        -21.562
   1.338        -21.565
   1.340        -21.569
   1.342        -21.572
   1.344        -21.576
   1.346        -21.579
   1.349        -21.583
   1.351        -21.587
   1.353        -21.591
   1.355        -21.594
   1.357        -21.598
   1.359        -21.602
   1.362        -21.605
   1.364        -21.609
   1.366        -21.612
   1.368        -21.615
   1.370        -21.619
   1.373        -21.622
   1.375        -21.625
   1.377        -21.629
   1.379        -21.632
   1.381        -21.636
   1.383        -21.638
   1.386        -21.641
   1.388        -21.644
   1.390        -21.646
   1.392        -21.649
   1.394        -21.651
   1.397        -21.654
   1.399        -21.656
   1.401        -21.659
   1.403        -21.661
   1.405        -21.664
   1.407        -21.666
   1.410        -21.669
   1.412        -21.671
   1.414        -21.674
   1.416        -21.677
   1.418        -21.679
   1.420        -21.682
   1.423        -21.684
   1.425        -21.687
   1.427        -21.689
   1.429        -21.692
   1.431        -21.694
   1.433        -21.697
   1.436        -21.699
   1.438        -21.701
   1.440        -21.704
   1.442        -21.706
   1.444        -21.709
   1.446        -21.711
   1.449        -21.713
   1.451        -21.715
   1.453        -21.718
   1.455        -21.720
   1.457        -21.722
   1.460        -21.725
   1.462        -21.727
   1.464        -21.729
   1.466        -21.731
   1.468        -21.733
   1.470        -21.736
   1.472        -21.737
   1.475        -21.739
   1.477        -21.741
   1.479        -21.743
   1.481        -21.746
   1.483        -21.747
   1.486        -21.750
   1.488        -21.751
   1.490        -21.753
   1.492        -21.755
   1.494        -21.757
   1.496        -21.759
   1.498        -21.761
   1.501        -21.762
   1.503        -21.764
   1.505        -21.766
   1.507        -21.768
   1.509        -21.770
   1.512        -21.771
   1.514        -21.773
   1.516        -21.775
   1.518        -21.776
   1.520        -21.778
   1.522        -21.780
   1.525        -21.781
   1.527        -21.783
   1.529        -21.785
   1.531        -21.787
   1.533        -21.789
   1.535        -21.790
   1.538        -21.792
   1.540        -21.794
   1.542        -21.796
   1.544        -21.798
   1.546        -21.800
   1.549        -21.802
   1.551        -21.804
   1.553        -21.806
   1.555        -21.808
   1.557        -21.810
   1.559        -21.812
   1.561        -21.814
   1.564        -21.817
   1.566        -21.819
   1.568        -21.821
   1.570        -21.823
   1.572        -21.825
   1.575        -21.828
   1.577        -21.830
   1.579        -21.832
   1.581        -21.835
   1.583        -21.837
   1.585        -21.840
   1.588        -21.842
   1.590        -21.905
   1.592        -22.039
   1.594        -22.044
   1.596        -22.050
   1.598        -22.055
   1.601        -22.060
   1.603        -22.065
   1.605        -22.071
   1.607        -22.077
   1.609        -22.082
   1.611        -22.087
   1.614        -22.093
   1.616        -22.099
   1.618        -22.105
   1.620        -22.112
   1.622        -22.118
   1.624        -22.124
   1.627        -22.130
   1.629        -22.136
   1.631        -22.142
   1.633        -22.148
   1.635        -22.155
   1.637        -22.162
   1.640        -22.169
   1.642        -22.176
   1.644        -22.182
   1.646        -22.189
   1.648        -22.196
   1.651        -22.203
   1.653        -22.210
   1.655        -22.217
   1.657        -22.225
   1.659        -22.233
   1.661        -22.241
   1.664        -22.249
   1.666        -22.256
   1.668        -22.264
   1.670        -22.272
   1.672        -22.280
   1.674        -22.288
   1.676        -22.298
   1.679        -22.307
   1.681        -22.317
   1.683        -22.326
   1.685        -22.336
   1.687        -22.345
   1.690        -22.355
   1.692        -22.364
   1.694        -22.374
   1.696        -22.385
   1.699        -22.400
   1.701        -22.412
   1.703        -22.424
   1.705        -22.436
   1.707        -22.448
   1.709        -22.461
   1.711        -22.474
   1.714        -22.488
   1.716        -22.497
   1.718        -22.520
   1.720        -22.542
   1.722        -22.570
   1.724        -22.597
   1.727        -22.624
   1.729        -22.652
   1.731        -22.679
   1.733        -22.706
   1.735        -22.733
   1.737        -22.756
   1.739        -22.771
   1.742        -22.787
   1.744        -22.802
   1.746        -22.817
   1.748        -22.832
   1.750        -22.847
   1.753        -22.863
   1.755        -22.878
   1.757        -22.893
   1.759        -22.901
   1.761        -22.908
   1.763        -22.914
   1.766        -22.921
   1.768        -22.927
   1.770        -22.934
   1.772        -22.941
   1.774        -22.947
   1.776        -22.954
   1.779        -22.959
   1.781        -22.962
   1.783        -22.965
   1.785        -22.968
   1.787        -22.971
   1.789        -22.974
   1.792        -22.977
   1.794        -22.980
   1.796        -22.982
   1.798        -22.985
   1.800        -22.987
   1.802        -22.989
   1.805        -22.991
   1.807        -22.993
   1.809        -22.994
   1.811        -22.996
   1.813        -22.998
   1.816        -22.999
   1.818        -23.001
   1.820        -23.003
   1.822        -23.004
   1.824        -23.005
   1.826        -23.007
   1.829        -23.008
   1.831        -23.010
   1.833        -23.011
   1.835        -23.012
   1.837        -23.014
   1.839        -23.015
   1.842        -23.017
   1.844        -23.018
   1.846        -23.019
   1.848        -23.020
   1.850        -23.022
   1.852        -23.023
   1.855        -23.025
   1.857        -23.026
   1.859        -23.027
   1.861        -23.029
   1.863        -23.030
   1.865        -23.031
   1.868        -23.033
   1.870        -23.034
   1.872        -23.036
   1.874        -23.037
   1.876        -23.039
   1.878        -23.040
   1.881        -23.041
   1.883        -23.043
   1.885        -23.044
   1.887        -23.046
   1.889        -23.047
   1.891        -23.049
   1.894        -23.050
   1.896        -23.052
   1.898        -23.053
   1.900        -23.055
   1.902        -23.056
   1.905        -23.058
   1.907        -23.059
   1.909        -23.061
   1.911        -23.062
   1.913        -23.064
   1.915        -23.066
   1.918        -23.067
   1.920        -23.069
   1.922        -23.070
   1.924        -23.072
   1.926        -23.073
   1.928        -23.075
   1.931        -23.077
   1.933        -23.078
   1.935        -23.080
   1.937        -23.082
   1.939        -23.083
   1.941        -23.085
   1.944        -23.087
   1.946        -23.088
   1.948        -23.090
   1.950        -23.092
   1.952        -23.094
   1.954        -23.095
   1.957        -23.097
   1.959        -23.099
   1.961        -23.101
   1.963        -23.103
   1.965        -23.104
   1.967        -23.106
   1.970        -23.108
   1.972        -23.110
   1.974        -23.112
   1.976        -23.113
   1.978        -23.115
   1.980        -23.117
   1.983        -23.119
   1.985        -23.121
   1.987        -23.122
   1.989        -23.124
   1.991        -23.126
   1.993        -23.128
   1.996        -23.130
   1.998        -23.132
   2.000        -23.134
   2.002        -23.136
   2.004        -23.138
   2.007        -23.140
   2.009        -23.142
   2.011        -23.144
   2.013        -23.146
   2.015        -23.148
   2.017        -23.150
   2.020        -23.152
   2.022        -23.154
   2.024        -23.156
   2.026        -23.158
   2.028        -23.160
   2.030        -23.162
   2.033        -23.164
   2.035        -23.166
   2.037        -23.168
   2.039        -23.170
   2.041        -23.172
   2.043        -23.174
   2.046        -23.176
   2.048        -23.178
   2.050        -23.180
   2.052        -23.182
   2.054        -23.185
   2.056        -23.187
   2.059        -23.189
   2.061        -23.191
   2.063        -23.193
   2.065        -23.195
   2.067        -23.197
   2.069        -23.199
   2.072        -23.201
   2.074        -23.204
   2.076        -23.206
   2.078        -23.208
   2.080        -23.210
   2.083        -23.212
   2.085        -23.215
   2.087        -23.217
   2.089        -23.219
   2.091        -23.221
   2.093        -23.223
   2.096        -23.225
   2.098        -23.228
   2.100        -23.230
   2.102        -23.232
   2.104        -23.234
   2.106        -23.236
   2.109        -23.238
   2.111        -23.241
   2.113        -23.243
   2.115        -23.245
   2.117        -23.247
   2.120        -23.249
   2.122        -23.252
   2.124        -23.254
   2.126        -23.256
   2.128        -23.258
   2.130        -23.260
   2.133        -23.263
   2.135        -23.265
   2.137        -23.267
   2.139        -23.269
   2.141        -23.271
   2.143        -23.273
   2.145        -23.275
   2.148        -23.277
   2.150        -23.279
   2.152        -23.282
   2.154        -23.284
   2.157        -23.286
   2.158        -23.288
   2.161        -23.291
   2.163        -23.292
   2.165        -23.295
   2.167        -23.297
   2.169        -23.299
   2.172        -23.301
   2.174        -23.304
   2.176        -23.305
   2.178        -23.308
   2.180        -23.310
   2.183        -23.312
   2.185        -23.314
   2.187        -23.316
   2.189        -23.318
   2.191        -23.320
   2.193        -23.322
   2.195        -23.325
   2.197        -23.327
   2.200        -23.329
   2.202        -23.331
   2.204        -23.333
   2.206        -23.335
   2.208        -23.337
   2.211        -23.339
   2.213        -23.341
   2.215        -23.343
   2.217        -23.345
   2.219        -23.348
   2.221        -23.349
   2.224        -23.351
   2.226        -23.354
   2.228        -23.355
   2.230        -23.358
   2.232        -23.359
   2.235        -23.362
   2.237        -23.364
   2.239        -23.365
   2.241        -23.367
   2.243        -23.370
   2.245        -23.371
   2.247        -23.373
   2.250        -23.375
   2.252        -23.377
   2.254        -23.379
   2.256        -23.381
   2.259        -23.383
   2.261        -23.385
   2.263        -23.387
   2.265        -23.389
   2.267        -23.391
   2.269        -23.392
   2.271        -23.394
   2.274        -23.396
   2.276        -23.398
   2.278        -23.400
   2.280        -23.401
   2.282        -23.403
   2.284        -23.405
   2.287        -23.407
   2.289        -23.408
   2.291        -23.410
   2.293        -23.412
   2.295        -23.414
   2.297        -23.415
   2.299        -23.417
   2.302        -23.419
   2.304        -23.420
   2.306        -23.422
   2.308        -23.424
   2.310        -23.425
   2.313        -23.427
   2.315        -23.429
   2.317        -23.430
   2.319        -23.432
   2.321        -23.434
   2.323        -23.435
   2.326        -23.437
   2.328        -23.438
   2.330        -23.440
   2.332        -23.442
   2.334        -23.443
   2.337        -23.445
   2.339        -23.446
   2.341        -23.448
   2.343        -23.450
   2.345        -23.451
   2.347        -23.453
   2.349        -23.454
   2.352        -23.456
   2.354        -23.458
   2.356        -23.459
   2.358        -23.461
   2.360        -23.462
   2.363        -23.464
   2.365        -23.466
   2.367        -23.467
   2.369        -23.469
   2.371        -23.470
   2.374        -23.472
   2.376        -23.474
   2.378        -23.475
   2.380        -23.477
   2.382        -23.478
   2.384        -23.480
   2.386        -23.482
   2.389        -23.483
   2.391        -23.485
   2.393        -23.487
   2.395        -23.488
   2.397        -23.490
   2.400        -23.492
   2.402        -23.493
   2.404        -23.495
   2.406        -23.497
   2.408        -23.499
   2.410        -23.501
   2.413        -23.502
   2.415        -23.504
   2.417        -23.506
   2.419        -23.508
   2.421        -23.510
   2.423        -23.511
   2.425        -23.513
   2.428        -23.514
   2.430        -23.516
   2.432        -23.517
   2.434        -23.519
   2.436        -23.520
   2.439        -23.522
   2.441        -23.523
   2.443        -23.525
   2.445        -23.526
   2.447        -23.527
   2.449        -23.528
   2.452        -23.529
   2.454        -23.530
   2.456        -23.531
   2.458        -23.532
   2.460        -23.533
   2.462        -23.534
   2.465        -23.535
   2.467        -23.536
   2.469        -23.537
   2.471        -23.538
   2.473        -23.539
   2.475        -23.540
   2.478        -23.541
   2.480        -23.542
   2.482        -23.543
   2.484        -23.544
   2.486        -23.545
   2.489        -23.546
   2.491        -23.547
   2.493        -23.548
   2.495        -23.549
   2.497        -23.550
   2.499        -23.551
   2.502        -23.552
   2.504        -23.553
   2.506        -23.554
   2.508        -23.556
   2.510        -23.557
   2.512        -23.558
   2.514        -23.559
   2.517        -23.560
   2.519        -23.561
   2.521        -23.562
   2.523        -23.564
   2.525        -23.565
   2.528        -23.566
   2.530        -23.568
   2.532        -23.569
   2.534        -23.570
   2.536        -23.572
   2.538        -23.573
   2.541        -23.575
   2.543        -23.576
   2.545        -23.577
   2.547        -23.579
   2.549        -23.580
   2.552        -23.582
   2.554        -23.584
   2.556        -23.586
   2.558        -23.587
   2.560        -23.589
   2.562        -23.591
   2.565        -23.592
   2.567        -23.594
   2.569        -23.596
   2.571        -23.598
   2.573        -23.600
   2.575        -23.602
   2.578        -23.605
   2.580        -23.607
   2.582        -23.609
   2.584        -23.611
   2.586        -23.613
   2.588        -23.615
   2.590        -23.618
   2.593        -23.620
   2.595        -23.623
   2.597        -23.626
   2.599        -23.629
   2.601        -23.631
   2.604        -23.634
   2.606        -23.637
   2.608        -23.640
   2.610        -23.642
   2.612        -23.646
   2.614        -23.649
   2.617        -23.653
   2.619        -23.656
   2.621        -23.660
   2.623        -23.663
   2.625        -23.667
   2.627        -23.670
   2.630        -23.674
   2.632        -23.678
   2.634        -23.682
   2.636        -23.686
   2.638        -23.691
   2.641        -23.695
   2.643        -23.700
   2.645        -23.704
   2.647        -23.709
   2.649        -23.713
   2.651        -23.718
   2.654        -23.723
   2.656        -23.729
   2.658        -23.735
   2.660        -23.740
   2.662        -23.746
   2.664        -23.752
   2.666        -23.757
   2.669        -23.763
   2.671        -23.769
   2.673        -23.775
   2.675        -23.781
   2.677        -23.788
   2.680        -23.794
   2.682        -23.801
   2.684        -23.808
   2.686        -23.815
   2.688        -23.821
   2.690        -23.828
   2.693        -23.835
   2.695        -23.841
   2.697        -23.848
   2.699        -23.854
   2.701        -23.861
   2.703        -23.867
   2.706        -23.873
   2.708        -23.880
   2.710        -23.886
   2.712        -23.893
   2.714        -23.899
   2.716        -23.905
   2.719        -23.910
   2.721        -23.916
   2.723        -23.921
   2.725        -23.927
   2.727        -23.932
   2.729        -23.938
   2.732        -23.943
   2.734        -23.949
   2.736        -23.954
   2.738        -23.959
   2.740        -23.964
   2.743        -23.969
   2.745        -23.974
   2.747        -23.979
   2.749        -23.983
   2.751        -23.988
   2.753        -23.993
   2.756        -23.998
   2.758        -24.003
   2.760        -24.007
   2.762        -24.011
   2.764        -24.016
   2.766        -24.020
   2.769        -24.025
   2.771        -24.029
   2.773        -24.033
   2.775        -24.038
   2.777        -24.042
   2.779        -24.046
   2.782        -24.050
   2.784        -24.054
   2.786        -24.058
   2.788        -24.062
   2.790        -24.066
   2.792        -24.070
   2.795        -24.073
   2.797        -24.077
   2.799        -24.081
   2.801        -24.085
   2.803        -24.088
   2.805        -24.092
   2.808        -24.095
   2.810        -24.099
   2.812        -24.102
   2.814        -24.106
   2.816        -24.109
   2.819        -24.113
   2.821        -24.116
   2.823        -24.119
   2.825        -24.122
   2.827        -24.125
   2.829        -24.128
   2.832        -24.131
   2.834        -24.135
   2.836        -24.138
   2.838        -24.141
   2.840        -24.144
   2.842        -24.147
   2.845        -24.149
   2.847        -24.152
   2.849        -24.155
   2.851        -24.157
   2.853        -24.160
   2.855        -24.163
   2.858        -24.166
   2.860        -24.168
   2.862        -24.171
   2.864        -24.173
   2.866        -24.175
   2.868        -24.178
   2.871        -24.180
   2.873        -24.183
   2.875        -24.185
   2.877        -24.187
   2.879        -24.190
   2.881        -24.192
   2.884        -24.194
   2.886        -24.196
   2.888        -24.198
   2.890        -24.200
   2.892        -24.203
   2.894        -24.205
   2.897        -24.207
   2.899        -24.209
   2.901        -24.211
   2.903        -24.213
   2.905        -24.215
   2.908        -24.217
   2.910        -24.219
   2.912        -24.220
   2.914        -24.222
   2.916        -24.224
   2.918        -24.226
   2.921        -24.228
   2.923        -24.230
   2.925        -24.231
   2.927        -24.233
   2.929        -24.234
   2.931        -24.236
   2.934        -24.237
   2.936        -24.239
   2.938        -24.240
   2.940        -24.242
   2.942        -24.243
   2.944        -24.245
   2.947        -24.246
   2.949        -24.248
   2.951        -24.249
   2.953        -24.250
   2.955        -24.252
   2.957        -24.253
   2.960        -24.254
   2.962        -24.256
   2.964        -24.257
   2.966        -24.258
   2.968        -24.260
   2.970        -24.261
   2.973        -24.262
   2.975        -24.264
   2.977        -24.265
   2.979        -24.266
   2.981        -24.267
   2.984        -24.269
   2.986        -24.270
   2.988        -24.271
   2.990        -24.272
   2.992        -24.273
   2.994        -24.275
   2.997        -24.276
   2.999        -24.277
   3.001        -24.278
   3.003        -24.279
   3.005        -24.281
   3.007        -24.282
   3.010        -24.283
   3.012        -24.284
   3.014        -24.285
   3.016        -24.286
   3.018        -24.287
   3.020        -24.288
   3.023        -24.289
   3.025        -24.290
   3.027        -24.292
   3.029        -24.293
   3.031        -24.294
   3.033        -24.295
   3.036        -24.296
   3.038        -24.297
   3.040        -24.298
   3.042        -24.299
   3.044        -24.300
   3.046        -24.302
   3.049        -24.303
   3.051        -24.304
   3.053        -24.305
   3.055        -24.306
   3.057        -24.307
   3.060        -24.308
   3.062        -24.309
   3.064        -24.310
   3.066        -24.311
   3.068        -24.312
   3.070        -24.313
   3.073        -24.314
   3.075        -24.315
   3.077        -24.317
   3.079        -24.317
   3.081        -24.319
   3.083        -24.320
   3.086        -24.320
   3.088        -24.322
   3.090        -24.323
   3.092        -24.324
   3.094        -24.325
   3.096        -24.326
   3.099        -24.327
   3.101        -24.328
   3.103        -24.329
   3.105        -24.330
   3.107        -24.331
   3.109        -24.332
   3.112        -24.333
   3.114        -24.334
   3.116        -24.335
   3.118        -24.336
   3.120        -24.337
   3.123        -24.337
   3.125        -24.338
   3.127        -24.339
   3.129        -24.340
   3.131        -24.341
   3.133        -24.342
   3.136        -24.343
   3.138        -24.344
   3.140        -24.345
   3.142        -24.346
   3.144        -24.347
   3.146        -24.348
   3.149        -24.349
   3.151        -24.350
   3.153        -24.351
   3.155        -24.352
   3.157        -24.353
   3.159        -24.354
   3.162        -24.355
   3.164        -24.356
   3.166        -24.356
   3.168        -24.358
   3.170        -24.359
   3.172        -24.359
   3.175        -24.361
   3.177        -24.362
   3.179        -24.362
   3.181        -24.363
   3.183        -24.364
   3.185        -24.365
   3.188        -24.366
   3.190        -24.367
   3.192        -24.368
   3.194        -24.369
   3.196        -24.370
   3.199        -24.371
   3.201        -24.372
   3.203        -24.373
   3.205        -24.374
   3.207        -24.375
   3.209        -24.376
   3.212        -24.377
   3.214        -24.378
   3.216        -24.379
   3.218        -24.380
   3.220        -24.381
   3.222        -24.382
   3.225        -24.383
   3.227        -24.384
   3.229        -24.385
   3.231        -24.386
   3.233        -24.387
   3.236        -24.388
   3.237        -24.389
   3.240        -24.390
   3.242        -24.391
   3.244        -24.392
   3.246        -24.393
   3.248        -24.394
   3.251        -24.395
   3.253        -24.396
   3.255        -24.397
   3.257        -24.398
   3.259        -24.398
   3.261        -24.399
   3.263        -24.400
   3.266        -24.401
   3.268        -24.402
   3.270        -24.403
   3.272        -24.404
   3.274        -24.405
   3.277        -24.406
   3.279        -24.407
   3.281        -24.408
   3.283        -24.409
   3.285        -24.410
   3.287        -24.410
   3.290        -24.411
   3.292        -24.412
   3.294        -24.413
   3.296        -24.414
   3.298        -24.415
   3.301        -24.416
   3.303        -24.417
   3.305        -24.418
   3.307        -24.420
   3.309        -24.421
   3.311        -24.422
   3.313        -24.423
   3.316        -24.424
   3.318        -24.425
   3.320        -24.426
   3.322        -24.427
   3.324        -24.429
   3.327        -24.430
   3.329        -24.431
   3.331        -24.432
   3.333        -24.433
   3.335        -24.434
   3.337        -24.435
   3.340        -24.436
   3.342        -24.438
   3.344        -24.439
   3.346        -24.440
   3.348        -24.441
   3.350        -24.442
   3.352        -24.443
   3.355        -24.444
   3.357        -24.445
   3.359        -24.447
   3.361        -24.447
   3.363        -24.449
   3.366        -24.450
   3.368        -24.451
   3.370        -24.452
   3.372        -24.453
   3.374        -24.454
   3.376        -24.455
   3.379        -24.456
   3.381        -24.457
   3.383        -24.458
   3.385        -24.459
   3.387        -24.460
   3.389        -24.461
   3.392        -24.462
   3.394        -24.463
   3.396        -24.464
   3.398        -24.465
   3.400        -24.466
   3.402        -24.467
   3.405        -24.468
   3.407        -24.469
   3.409        -24.470
   3.411        -24.472
   3.413        -24.473
   3.416        -24.473
   3.418        -24.474
   3.420        -24.475
   3.422        -24.476
   3.424        -24.477
   3.426        -24.478
   3.429        -24.479
   3.431        -24.480
   3.433        -24.481
   3.435        -24.482
   3.437        -24.483
   3.439        -24.484
   3.442        -24.485
   3.444        -24.486
   3.446        -24.487
   3.448        -24.488
   3.450        -24.489
   3.452        -24.490
   3.455        -24.491
   3.457        -24.492
   3.459        -24.493
   3.461        -24.494
   3.463        -24.495
   3.466        -24.496
   3.468        -24.497
   3.470        -24.498
   3.472        -24.499
   3.474        -24.500
   3.476        -24.501
   3.478        -24.502
   3.481        -24.503
   3.483        -24.504
   3.485        -24.505
   3.487        -24.506
   3.489        -24.507
   3.492        -24.508
   3.494        -24.509
   3.496        -24.509
   3.498        -24.510
   3.500        -24.511
   3.502        -24.512
   3.505        -24.513
   3.507        -24.514
   3.509        -24.515
   3.511        -24.516
   3.513        -24.517
   3.515        -24.518
   3.518        -24.519
   3.520        -24.520
   3.522        -24.521
   3.524        -24.521
   3.526        -24.522
   3.528        -24.523
   3.531        -24.524
   3.533        -24.525
   3.535        -24.526
   3.537        -24.527
   3.539        -24.528
   3.541        -24.529
   3.544        -24.530
   3.546        -24.531
   3.548        -24.532
   3.550        -24.533
   3.552        -24.534
   3.555        -24.535
   3.557        -24.536
   3.559        -24.537
   3.561        -24.538
   3.563        -24.539
   3.565        -24.540
   3.568        -24.541
   3.570        -24.542
   3.572        -24.543
   3.574        -24.544
   3.576        -24.545
   3.578        -24.546
   3.581        -24.547
   3.583        -24.548
   3.585        -24.549
   3.587        -24.549
   3.589        -24.550
   3.591        -24.551
   3.594        -24.552
   3.596        -24.553
   3.598        -24.554
   3.600        -24.555
   3.602        -24.556
   3.604        -24.557
   3.607        -24.558
   3.609        -24.559
   3.611        -24.560
   3.613        -24.561
   3.615        -24.562
   3.617        -24.563
   3.620        -24.564
   3.622        -24.565
   3.624        -24.566
   3.626        -24.567
   3.628        -24.568
   3.630        -24.569
   3.633        -24.570
   3.635        -24.571
   3.637        -24.572
   3.639        -24.573
   3.641        -24.574
   3.644        -24.575
   3.646        -24.576
   3.648        -24.577
   3.650        -24.578
   3.652        -24.579
   3.654        -24.580
   3.657        -24.581
   3.659        -24.582
   3.661        -24.583
   3.663        -24.584
   3.665        -24.585
   3.667        -24.586
   3.670        -24.587
   3.672        -24.588
   3.674        -24.589
   3.676        -24.590
   3.678        -24.591
   3.680        -24.592
   3.683        -24.593
   3.685        -24.594
   3.687        -24.595
   3.689        -24.596
   3.691        -24.598
   3.693        -24.599
   3.696        -24.600
   3.698        -24.601
   3.700        -24.602
   3.702        -24.603
   3.704        -24.604
   3.706        -24.605
   3.709        -24.606
   3.711        -24.607
   3.713        -24.608
   3.715        -24.609
   3.717        -24.611
   3.719        -24.612
   3.722        -24.613
   3.724        -24.614
   3.726        -24.615
   3.728        -24.616
   3.730        -24.618
   3.733        -24.619
   3.735        -24.620
   3.737        -24.621
   3.739        -24.622
   3.741        -24.624
   3.743        -24.625
   3.746        -24.626
   3.748        -24.627
   3.750        -24.629
   3.752        -24.630
   3.754        -24.631
   3.756        -24.632
   3.759        -24.634
   3.761        -24.635
   3.763        -24.636
   3.765        -24.638
   3.767        -24.639
   3.769        -24.640
   3.772        -24.641
   3.774        -24.643
   3.776        -24.644
   3.778        -24.645
   3.780        -24.647
   3.782        -24.648
   3.785        -24.650
   3.787        -24.651
   3.789        -24.653
   3.791        -24.654
   3.793        -24.655
   3.795        -24.657
   3.798        -24.658
   3.800        -24.660
   3.802        -24.661
   3.804        -24.663
   3.806        -24.664
   3.809        -24.666
   3.811        -24.667
   3.813        -24.669
   3.815        -24.670
   3.817        -24.672
   3.819        -24.673
   3.822        -24.675
   3.824        -24.676
   3.826        -24.678
   3.828        -24.679
   3.830        -24.681
   3.832        -24.682
   3.835        -24.683
   3.837        -24.685
   3.839        -24.686
   3.841        -24.687
   3.843        -24.689
   3.845        -24.690
   3.848        -24.691
   3.850        -24.692
   3.852        -24.693
   3.854        -24.694
   3.856        -24.695
   3.858        -24.696
   3.861        -24.697
   3.863        -24.697
   3.865        -24.698
   3.867        -24.699
   3.869        -24.700
   3.871        -24.700
   3.874        -24.701
   3.876        -24.702
   3.878        -24.702
   3.880        -24.703
   3.882        -24.704
   3.885        -24.705
   3.887        -24.705
   3.889        -24.706
   3.891        -24.706
   3.899        -24.709
   3.912        -24.713
   3.925        -24.717
   3.938        -24.721
   3.951        -24.725
   3.964        -24.729
   3.977        -24.733
   3.990        -24.736
   4.003        -24.740
   4.016        -24.744
   4.029        -24.748
   4.042        -24.751
   4.055        -24.755
   4.068        -24.759
   4.081        -24.763
   4.094        -24.766
   4.107        -24.770
   4.120        -24.775
   4.133        -24.779
   4.146        -24.783
   4.159        -24.787
   4.172        -24.791
   4.185        -24.795
   4.198        -24.800
   4.211        -24.805
   4.224        -24.810
   4.237        -24.816
   4.250        -24.822
   4.263        -24.828
   4.276        -24.835
   4.289        -24.842
   4.302        -24.850
   4.315        -24.858
   4.328        -24.866
   4.341        -24.875
   4.354        -24.885
   4.367        -24.894
   4.380        -24.905
   4.393        -24.915
   4.406        -24.926
   4.420        -24.937
   4.432        -24.949
   4.445        -24.961
   4.459        -24.973
   4.471        -24.985
   4.484        -24.998
   4.498        -25.011
   4.510        -25.024
   4.524        -25.037
   4.537        -25.050
   4.550        -25.064
   4.563        -25.078
   4.576        -25.092
   4.589        -25.106
   4.602        -25.121
   4.615        -25.135
   4.628        -25.150
   4.641        -25.165
   4.654        -25.180
   4.667        -25.195
   4.680        -25.210
   4.693        -25.226
   4.706        -25.241
   4.719        -25.257
   4.732        -25.273
   4.745        -25.289
   4.758        -25.305
   4.771        -25.322
   4.784        -25.338
   4.797        -25.355
   4.810        -25.371
   4.823        -25.388
   4.836        -25.406
   4.849        -25.423
   4.862        -25.440
   4.875        -25.457
   4.888        -25.475
   4.901        -25.493
   4.914        -25.511
   4.927        -25.529
   4.940        -25.547
   4.953        -25.566
   4.966        -25.584
   4.979        -25.603
   4.992        -25.622
   5.005        -25.640
   5.018        -25.659
   5.031        -25.678
   5.044        -25.698
   5.057        -25.717
   5.070        -25.737
   5.083        -25.757
   5.096        -25.776
   5.109        -25.796
   5.123        -25.816
   5.136        -25.836
   5.149        -25.856
   5.162        -25.876
   5.175        -25.896
   5.188        -25.917
   5.201        -25.937
   5.214        -25.957
   5.227        -25.977
   5.240        -25.998
   5.253        -26.018
   5.266        -26.039
   5.279        -26.060
   5.292        -26.081
   5.305        -26.101
   5.318        -26.122
   5.331        -26.144
   5.344        -26.165
   5.357        -26.187
   5.370        -26.208
   5.383        -26.230
   5.396        -26.252
   5.409        -26.274
   5.422        -26.297
   5.435        -26.319
   5.448        -26.343
   5.461        -26.366
   5.474        -26.389
   5.487        -26.413
   5.500        -26.437
   5.513        -26.461
   5.526        -26.486
   5.539        -26.511
   5.552        -26.536
   5.565        -26.562
   5.578        -26.588
   5.591        -26.614
   5.604        -26.641
   5.617        -26.668
   5.630        -26.696
   5.643        -26.724
   5.656        -26.752
   5.669        -26.781
   5.682        -26.810
   5.695        -26.840
   5.708        -26.870
   5.721        -26.901
   5.734        -26.932
   5.748        -26.964
   5.761        -26.996
   5.774        -27.029
   5.787        -27.063
   5.800        -27.097
   5.813        -27.131
   5.826        -27.167
   5.839        -27.203
   5.852        -27.239
   5.865        -27.277
   5.878        -27.315
   5.891        -27.354
   5.904        -27.394
   5.917        -27.434
   5.930        -27.475
   5.943        -27.517
   5.956        -27.560
   5.969        -27.603
   5.982        -27.648
   5.995        -27.694
   6.008        -27.740
   6.021        -27.788
   6.034        -27.836
   6.047        -27.885
   6.060        -27.936
   6.073        -27.988
   6.086        -28.040
   6.099        -28.095
   6.112        -28.150
   6.125        -28.206
   6.138        -28.264
   6.151        -28.322
   6.164        -28.383
   6.177        -28.445
   6.190        -28.507
   6.203        -28.572
   6.216        -28.638
   6.229        -28.705
   6.242        -28.775
   6.255        -28.846
   6.268        -28.918
   6.281        -28.993
   6.294        -29.068
   6.307        -29.146
   6.320        -29.225
   6.334        -29.307
   6.346        -29.390
   6.359        -29.476
   6.372        -29.563
   6.386        -29.653
   6.399        -29.745
   6.411        -29.840
   6.425        -29.937
   6.438        -30.036
   6.451        -30.138
   6.464        -30.241
   6.477        -30.347
   6.490        -30.456
   6.503        -30.569
   6.516        -30.684
   6.529        -30.801
   6.542        -30.923
   6.555        -31.048
   6.568        -31.175
   6.581        -31.305
   6.594        -31.440
   6.607        -31.580
   6.620        -31.722
   6.633        -31.865
   6.646        -32.011
   6.659        -32.164
   6.672        -32.322
   6.685        -32.482
   6.698        -32.647
   6.711        -32.817
   6.724        -32.993
   6.737        -33.172
   6.750        -33.353
   6.763        -33.546
   6.776        -33.748
   6.789        -33.949
   6.802        -34.153
   6.815        -34.363
   6.828        -34.603
   6.841        -34.863
   6.854        -35.165
   6.867        -35.797
   6.880        -36.855
   6.893        -40.567
